Archivo de aceleración parte de la Red Nacional de Acelerógrafos (RENAC) Ecuador
          
Evento: 201604162358
Fecha del evento UTM (aammdd):                  2016    4   16
Hora del registro UTM (hhmmss): 23   59 20.00
Estación:                                      APO1 
Componente:                                        E
Frecuencia de muestreo (Hz):            1.000000e+02
Unidades: cm/s^2
_____________________________________________
4.2673 0.0783 -4.2440 -8.3632 -11.8550 -13.7410
-13.3340 -11.9358 -11.0751 -11.2303 -11.4325 -11.4279
-11.4371 -10.8060 -9.4096 -6.8494 -2.9387 1.4138
5.0278 8.0979 11.0256 12.3723 11.8790 10.2254
7.5990 4.0356 -0.2306 -3.9429 -6.2772 -7.1554
-6.1486 -3.8005 -2.0340 -1.2054 -0.7359 -0.3970
-0.1003 0.4316 1.7140 2.7255 3.1682 3.2592
2.4241 0.8275 -0.9933 -1.6023 -0.5826 1.0608
2.2679 2.9817 3.3390 1.7314 -1.9846 -7.4193
-13.4961 -17.6402 -19.1918 -18.6369 -16.1998 -12.0989
-7.5461 -3.1614 0.3947 2.0886 2.8502 2.9540
1.9407 -0.1878 -2.8253 -4.3208 -3.9185 -1.8111
1.5658 6.1802 11.2915 15.4594 18.3972 19.5501
18.9163 17.0422 14.3276 10.3967 4.8517 -1.2857
-7.9900 -13.9897 -17.2041 -18.4287 -18.5775 -16.8725
-14.2066 -12.4161 -10.9059 -8.6911 -6.2355 -3.6339
-0.6924 1.8899 4.8654 8.2175 10.6666 12.7528
13.9278 13.7110 12.9623 11.7763 9.5715 6.8275
4.7468 3.3137 3.0142 3.7399 4.1414 3.5360
1.8190 -1.2383 -5.1425 -8.7629 -11.9231 -14.0415
-14.1389 -12.7857 -10.9539 -8.5168 -5.6754 -2.1432
2.2617 6.5315 9.6421 11.7853 13.2239 12.2225
8.8419 4.0585 -2.4988 -9.5816 -14.9924 -18.8085
-20.7331 -18.9123 -13.6274 -5.7270 3.7957 11.9064
16.0816 17.7196 18.0475 15.8088 12.1213 7.9304
3.2123 -0.6516 -2.8407 -2.0911 0.2891 1.4319
2.5223 3.8405 4.2539 3.8993 2.2329 0.3956
-0.1620 0.4103 2.0794 4.0527 5.6456 7.5353
9.7749 11.2879 11.7316 11.3402 11.6985 13.0820
13.4311 12.2019 9.7114 6.9509 5.0015 3.3728
1.7183 0.5029 -0.6399 -1.9591 -3.3895 -5.1707
-7.3920 -8.9197 -10.1489 -12.3537 -14.6374 -16.4940
-16.6667 -15.4054 -13.6949 -11.2495 -8.5377 -6.0408
-2.8136 1.0043 2.9766 3.9338 4.8699 5.6342
6.8432 9.2417 12.7390 16.5137 20.5080 22.4987
21.3081 17.6372 12.3642 6.6943 1.6959 -1.0940
-1.4734 0.8434 4.9010 8.8089 11.3306 10.4597
6.8972 2.1322 -2.8396 -6.0989 -7.4282 -7.0479
-5.0875 -2.5842 -0.2784 2.4389 4.8963 5.1765
4.5665 3.5449 1.4569 -0.1774 -0.8490 -0.3814
1.3989 4.0998 6.5314 8.8767 11.8715 14.3334
16.0357 16.3563 15.5975 14.3187 12.3124 10.3318
8.8114 7.0062 4.7905 3.6982 2.6151 1.1544
-0.2337 -2.8261 -6.8902 -12.0989 -18.3016 -24.6890
-28.9791 -31.4374 -32.0180 -28.6025 -21.2083 -11.4532
-0.9705 9.2549 17.2104 20.9043 21.2194 20.6332
19.2516 17.2508 14.7658 10.7734 6.9830 3.8954
1.2699 0.4110 2.2069 5.9614 9.5928 12.6850
15.0248 15.7193 14.5581 11.8481 5.8741 -4.5185
-15.3026 -23.6264 -28.9169 -30.1773 -28.3244 -24.5745
-19.1067 -13.9715 -11.6767 -10.5248 -9.3544 -9.5069
-11.0585 -13.0860 -15.0941 -16.2461 -15.2237 -12.1058
-7.2122 -2.4619 2.0211 6.2744 9.4208 12.4532
14.0388 13.9212 12.9438 12.7995 13.0485 13.3424
13.8284 12.7683 12.8142 13.2248 13.7705 14.2491
11.5115 6.9532 1.4183 -2.9710 -5.3246 -5.2437
-1.9706 1.8114 4.8264 5.3905 4.1374 1.7581
-2.4006 -7.4578 -13.8506 -18.6111 -20.4052 -21.2311
-21.5195 -21.1796 -19.5261 -17.0182 -12.7575 -7.1207
-1.5399 4.6490 10.2252 13.7509 15.2428 15.3521
14.9359 14.7219 13.4835 10.6798 8.5035 7.3718
7.6997 9.3533 11.7629 14.7237 15.7378 13.7866
9.0400 2.5525 -3.6521 -9.1759 -13.3255 -16.3184
-18.5177 -18.4442 -17.2160 -17.1535 -18.1934 -19.7680
-21.4041 -22.6645 -22.4128 -19.9159 -16.4361 -13.3972
-12.3785 -13.9163 -15.7297 -16.2974 -14.6255 -9.6860
-3.5255 2.4549 7.4808 10.0695 10.7732 10.7576
10.8797 11.4300 13.3040 16.5955 19.3974 20.7055
20.2554 18.9922 17.7934 16.6726 16.0002 15.1633
13.7550 12.5120 11.5236 9.2554 6.0356 3.9695
4.0715 5.8445 6.9624 6.5591 4.7274 1.6894
-3.3457 -10.7004 -17.7217 -22.6998 -24.6033 -23.7306
-21.4707 -19.3312 -17.9725 -16.6818 -16.2675 -14.2584
-8.9000 -4.1579 -1.3331 -0.9712 -3.3881 -5.1501
-3.5287 1.5312 9.5850 18.8651 25.4252 27.7135
25.9800 21.0836 14.3545 6.6783 -0.1794 -5.2816
-8.5152 -10.1605 -10.6052 -10.7044 -11.7553 -13.7617
-17.4840 -22.6202 -26.8754 -30.3313 -33.0156 -33.9922
-33.0202 -30.8155 -28.4077 -24.4034 -18.5268 -12.1009
-5.3056 1.5392 6.9941 9.8667 10.2093 8.8047
7.2788 5.0869 3.4205 3.9956 4.1095 4.5513
5.4691 5.5857 5.9210 5.5618 4.3942 1.5363
-3.4860 -10.3584 -17.7746 -24.1418 -29.5260 -30.8617
-28.3318 -23.6540 -16.7770 -9.9625 -4.2017 -0.3921
0.9005 1.3166 3.4258 7.7048 11.9765 15.2083
16.2271 15.0016 12.7840 9.7782 8.0548 8.5435
9.9068 11.3307 11.9737 10.7482 6.4894 -0.0082
-7.4548 -14.7911 -19.9916 -23.5716 -25.3565 -24.0833
-22.2864 -20.3086 -16.4245 -11.6963 -7.3492 -3.9053
-0.9445 1.2796 0.9433 -2.1672 -6.8275 -11.6293
-14.1106 -13.8791 -13.1791 -11.5439 -7.9887 -2.3060
4.9660 10.8692 15.2815 19.8177 22.3210 21.4694
19.6331 18.1540 17.8426 19.0525 21.1130 22.7279
22.2172 20.8208 19.1994 16.3259 11.7648 5.9883
-0.2484 -8.3371 -17.7045 -26.9829 -34.4552 -38.6323
-41.2578 -41.3010 -38.3420 -32.3175 -23.4802 -14.6079
-7.4094 -2.6545 1.6613 5.1145 7.7712 10.6512
12.9974 14.8806 15.0129 13.9206 13.5210 15.7606
20.2850 25.3384 28.7843 29.4576 27.6782 23.2264
17.0614 9.1390 0.4532 -7.3618 -12.0680 -14.0009
-15.2456 -14.2452 -12.6983 -13.0161 -14.0772 -15.6416
-16.8533 -15.9926 -13.5572 -9.9470 -6.6665 -5.1351
-3.9124 -1.5836 2.3978 7.9427 14.8142 21.2539
26.2026 30.0113 31.3599 29.9847 27.1791 22.2680
15.2137 7.8581 -0.2361 -9.1231 -17.5646 -25.2325
-31.8560 -37.5534 -41.7967 -43.1278 -41.5909 -38.2783
-33.9147 -29.3996 -25.0498 -21.4193 -19.0520 -16.6644
-12.0078 -5.9861 0.2993 7.8772 15.7849 24.1942
32.2682 38.9513 43.5197 44.9216 44.1095 40.2659
33.9097 25.5574 17.6056 11.3569 5.0844 0.2679
-4.5623 -9.0793 -12.5858 -15.3904 -16.3330 -16.2669
-14.1632 -11.3916 -9.3568 -7.5205 -6.1728 -4.9933
-4.0581 -3.2966 -2.4110 -0.2026 3.8790 8.3840
11.8041 15.4484 20.4596 25.0106 28.3627 31.8058
35.5373 38.2951 39.0226 37.3994 33.1451 25.8749
17.9525 10.4132 2.9253 -3.5043 -8.9712 -12.5540
-14.2048 -15.8087 -18.2239 -20.0456 -21.4208 -23.7597
-26.5937 -29.9018 -34.1027 -38.1209 -40.1860 -40.8447
-39.7570 -36.1587 -29.2275 -18.5170 -5.8076 8.1274
20.3068 28.8529 35.0024 39.1592 42.1255 44.0326
44.4286 42.8329 40.3470 38.2580 34.9802 30.8436
26.3881 21.4072 16.3455 11.3636 6.4884 0.9370
-4.3416 -10.1079 -16.5807 -22.4325 -27.1571 -29.7955
-30.1997 -28.0042 -23.6920 -17.9698 -12.2944 -6.7963
0.1597 7.4206 14.1984 21.0974 26.5441 29.2982
29.7557 27.7310 24.2428 20.4479 16.1652 12.0891
9.8347 11.3670 16.5684 23.1376 28.5861 31.4955
31.5359 28.3730 23.4509 17.2261 10.4933 4.8942
-0.3963 -6.1572 -12.4499 -17.6531 -21.6281 -24.8076
-26.0716 -26.0469 -24.7194 -21.9332 -18.5121 -14.8339
-10.8369 -6.6184 -3.3407 -1.2637 -0.1126 -0.6317
-2.4717 -5.2543 -8.4328 -9.6822 -9.5885 -9.3625
-6.8464 -2.6399 1.1210 4.6845 8.6916 12.1668
13.8378 15.8230 18.5514 21.2393 24.7816 28.2174
32.1519 36.4135 38.5539 39.1410 40.1175 41.5303
42.1697 41.7416 39.8262 35.8567 30.4137 23.3154
15.6253 8.3644 1.9632 -2.4996 -7.0359 -11.9415
-15.7989 -18.1846 -19.1253 -21.1004 -24.5472 -28.0674
-29.9608 -30.4899 -31.5877 -31.6456 -31.8642 -33.2578
-35.2238 -38.3554 -40.5115 -40.7099 -38.4051 -35.1806
-32.6856 -30.9705 -31.2571 -32.3191 -31.4997 -29.8966
-30.2273 -30.2907 -30.2678 -31.5851 -32.6829 -34.5919
-37.4186 -42.4151 -48.7225 -52.9208 -55.4480 -54.6873
-50.8695 -44.9378 -36.8969 -27.9382 -18.3962 -9.6957
-1.5345 4.7004 6.9795 5.8358 1.4226 -7.5204
-18.1189 -25.9164 -31.4328 -33.7249 -32.4094 -28.0890
-22.0765 -15.2316 -7.1099 -0.7602 3.5501 6.5816
7.1493 5.1053 1.0789 -3.2314 -7.1724 -10.8911
-15.0949 -21.2746 -30.4335 -40.5827 -49.7141 -57.7311
-63.8007 -67.8648 -71.0405 -73.8268 -72.4231 -66.0569
-56.7280 -42.2373 -23.3242 -2.9542 16.6727 33.7412
46.4323 55.0326 61.7920 66.8271 69.1504 68.6322
66.6011 64.8198 63.9829 65.5511 70.5182 76.2220
81.1313 82.6020 79.3574 72.6374 62.3256 48.0949
30.2345 14.2335 0.7864 -11.9672 -21.7242 -29.3232
-34.9233 -38.9075 -44.8723 -51.9312 -58.8403 -66.4927
-71.9292 -73.6214 -70.0258 -61.4622 -48.8721 -33.7154
-19.6004 -4.3692 9.8404 19.7057 27.0319 32.0119
34.7908 36.6832 39.7937 44.3750 49.8088 54.1218
59.2607 63.2330 61.6345 60.6534 58.1592 53.4787
49.2144 46.0101 46.9453 47.7959 50.9855 54.5434
53.1406 48.2258 37.7156 23.7742 8.2490 -7.3275
-21.8743 -34.7960 -42.4814 -45.4358 -43.0841 -37.5511
-30.7017 -22.0159 -15.1729 -10.5475 -7.2964 -5.1688
-4.9814 -3.9002 1.0201 4.3079 4.6046 9.2281
20.8499 35.3021 51.9847 69.4721 86.0334 100.8686
109.1530 110.9737 107.1760 98.2927 88.5027 79.6736
72.5770 68.0802 66.9668 64.7400 62.0419 61.2960
62.9468 66.5442 65.5300 65.0679 62.6702 55.0381
48.5690 42.4848 35.6023 27.1342 22.0485 19.9999
19.4699 20.5052 19.5764 13.4747 0.5631 -12.0159
-24.1788 -35.2494 -42.6537 -47.9938 -50.1692 -52.6339
-51.9036 -49.1513 -46.1272 -37.1033 -23.8895 -11.1892
-4.1937 1.9842 10.6801 20.2404 30.9123 41.6458
55.7718 73.1067 92.9843 113.2432 132.5008 151.1108
164.8592 175.1334 180.8290 180.8611 177.1093 168.2683
156.7595 139.8334 120.6722 98.4593 71.5531 47.2797
19.7377 -8.8175 -38.5266 -67.5145 -93.9513 -124.3006
-146.8222 -163.1704 -182.7698 -201.3347 -216.6091 -230.3309
-242.4534 -254.0458 -267.6840 -277.6211 -283.5335 -292.6116
-301.0402 -298.3715 -284.9188 -258.0301 -216.7240 -178.8951
-150.4593 -129.5821 -114.3905 -101.7756 -97.2697 -98.5990
-98.6339 -92.4624 -83.0775 -71.6431 -50.0053 -17.3530
21.7731 53.7099 77.5120 99.5347 116.1199 130.1642
140.5513 152.1309 165.2767 176.3390 180.2056 167.4373
138.9400 99.4767 60.7695 19.3064 -28.7260 -76.6518
-116.4558 -143.8122 -166.6939 -179.3023 -187.1696 -195.9657
-195.7471 -193.9245 -192.9452 -191.6986 -189.2321 -182.5361
-181.5182 -184.9659 -182.2816 -175.5140 -170.0701 -161.5551
-146.2707 -125.2493 -100.8445 -78.9569 -58.0917 -40.6603
-25.7682 -11.1194 -2.1130 4.0042 10.3824 20.6887
32.0294 44.9189 62.4476 76.6159 87.6212 101.0004
112.5386 121.3337 131.8320 141.0231 149.9440 156.9726
161.5456 163.6622 158.7235 149.7731 134.3821 114.7552
90.7463 60.3005 31.3788 2.1805 -25.6683 -49.5053
-71.5033 -94.4474 -118.6427 -139.9691 -158.1776 -170.6896
-177.1946 -174.8052 -162.0874 -147.0859 -134.0228 -120.0217
-104.4856 -89.3233 -72.5011 -53.1608 -30.0807 -5.6594
19.5216 48.0079 74.6367 99.0672 124.3291 149.7930
174.7572 196.4851 213.9430 224.7555 224.9989 217.0306
199.3466 171.1524 137.5042 99.6808 61.3043 29.5246
3.0749 -25.9038 -54.4701 -76.5002 -93.7073 -108.2256
-118.7065 -125.9620 -132.5037 -134.8435 -131.6934 -125.4999
-115.3783 -100.7507 -83.3699 -59.4199 -29.0173 2.4280
35.1429 67.1568 98.8051 129.6661 158.1349 184.4542
205.5049 221.3874 231.7856 234.1097 229.1196 219.4876
205.6739 185.2074 159.6157 134.5357 109.7166 81.8476
49.0299 15.2714 -17.5142 -51.4802 -78.5858 -97.6184
-114.1191 -127.3963 -135.3904 -139.4554 -143.3661 -143.6536
-136.7693 -122.8987 -104.2492 -82.3184 -54.4485 -26.8707
-3.6988 18.5959 38.2439 53.4263 67.4936 83.9934
98.1534 110.4017 120.7989 126.1188 130.2380 131.5397
131.4515 126.6580 114.0725 94.2059 64.1670 34.3817
3.9212 -28.0027 -53.3270 -81.9006 -110.3263 -128.0865
-139.4520 -143.3058 -136.2101 -113.7327 -78.2941 -37.0937
10.0999 58.1856 97.3475 123.0466 142.2059 160.3134
176.8003 191.8588 205.0974 215.3182 220.3992 220.3818
215.9006 209.6382 202.8935 196.8524 192.3217 187.4538
180.5657 168.0253 149.5164 126.3949 96.9707 60.8926
21.3706 -20.4802 -64.5064 -109.9922 -156.5787 -200.6159
-240.4282 -271.9378 -293.9109 -306.7472 -308.2225 -308.1803
-305.8432 -295.8217 -282.3865 -264.8882 -240.7085 -205.4600
-158.7725 -102.8159 -42.0392 19.1537 82.7856 146.1796
200.6158 248.6243 283.2646 297.5193 303.7854 299.3106
287.3820 279.1068 268.3807 250.0022 218.4540 172.6834
124.4617 71.7388 19.7553 -20.9132 -60.6438 -98.7925
-131.4990 -155.0026 -172.6177 -189.4381 -196.1718 -197.5553
-196.0791 -192.2520 -185.4430 -171.8939 -155.0670 -129.0133
-97.5175 -65.7250 -37.7751 -13.2528 13.0288 32.8182
51.0148 64.7972 69.6008 71.9140 68.8181 65.9767
66.4333 72.6525 82.1504 84.2403 84.8861 82.6832
73.8182 62.7945 53.3333 47.2822 36.7049 21.6400
7.1584 -8.9188 -28.4658 -50.4904 -68.4968 -81.2614
-92.1887 -94.1776 -91.0450 -84.8919 -70.4306 -54.9881
-35.8279 -12.6872 5.7978 18.3713 29.3978 40.6301
51.2083 61.7994 71.4497 80.9586 91.3155 101.4536
109.0628 114.4929 115.1534 110.2993 104.0864 94.7860
85.2496 75.5771 63.7927 50.3373 30.3218 7.0644
-18.2765 -45.1102 -71.8492 -99.1432 -120.3768 -140.6789
-163.8077 -186.4780 -206.8150 -223.3525 -239.6457 -252.7649
-260.8692 -262.2857 -259.9919 -252.6611 -226.8526 -187.7486
-139.4204 -82.2659 -29.7542 17.0820 59.3113 92.9889
123.1600 149.3681 167.3910 178.4616 182.4972 184.9950
187.9824 186.5668 181.5684 172.9111 162.0095 148.5807
132.2214 111.2864 84.7549 55.1359 22.0655 -10.6962
-44.5465 -79.6967 -112.8801 -145.4608 -175.7936 -200.1791
-216.9297 -225.4061 -221.7866 -205.1150 -178.1362 -141.4749
-102.8219 -71.3353 -45.8235 -24.3336 -5.1753 14.8356
38.1316 64.0898 90.6579 117.5881 148.3554 182.3609
213.6353 242.5019 268.2966 286.4013 293.9296 295.6172
291.9536 280.2004 262.4898 233.4964 196.7137 161.4120
121.4609 81.1287 50.3815 11.9747 -38.6592 -84.3325
-128.6747 -177.7038 -223.0519 -259.8217 -286.7234 -302.1805
-311.6224 -308.7204 -292.7010 -277.6361 -258.0157 -234.9806
-212.2607 -181.4823 -141.6333 -100.2602 -61.4630 -24.0153
13.7990 53.8612 94.0979 132.8868 164.0556 189.1815
209.2300 221.3663 229.3511 231.4171 230.4774 229.4246
226.7394 221.3249 211.8251 191.9355 162.2568 129.7045
91.6844 54.4829 21.1673 -12.9090 -40.3380 -55.1218
-62.5996 -69.0586 -70.6819 -70.3879 -73.8071 -77.8960
-83.0349 -85.9737 -85.5006 -78.5263 -60.6659 -37.8109
-11.6203 18.2072 47.6967 74.0040 97.2852 118.9322
139.1323 156.3165 168.3692 176.1960 177.9856 171.2813
155.8452 134.6860 109.2037 81.7499 62.3720 47.2097
35.1258 27.4036 18.1611 7.1043 -10.0083 -28.7322
-45.5021 -63.2751 -78.4181 -87.9684 -93.1532 -95.6979
-92.2227 -81.4993 -69.0544 -59.0338 -51.0453 -42.5928
-34.5648 -29.5683 -23.6393 -17.9520 -14.6017 -12.3988
-13.4736 -15.9981 -22.4075 -27.8900 -32.2177 -39.5090
-43.1377 -46.7737 -49.5324 -51.8263 -53.3558 -47.8127
-38.5537 -25.1258 -7.7487 8.7704 23.2969 34.8195
38.5575 31.6474 18.8010 6.5325 -8.8411 -27.1727
-43.5641 -59.7736 -72.7587 -81.9167 -88.1644 -88.1516
-80.6867 -66.8059 -46.8364 -22.2589 1.8859 22.2523
36.7614 41.4813 38.4103 31.7639 18.9910 5.7910
-1.3166 -7.1657 -8.0200 -1.1577 8.5900 22.9476
39.0753 51.4936 60.0508 63.0804 57.4602 44.0929
24.1877 2.0777 -16.9668 -32.4607 -41.9063 -47.4549
-50.9788 -50.5636 -46.6520 -41.3955 -34.5489 -28.3884
-25.7979 -24.2068 -26.2517 -30.2947 -34.2531 -41.6124
-50.2073 -57.3185 -62.6798 -63.8189 -58.2179 -45.1088
-25.9468 -3.1267 20.1941 41.3000 60.8874 76.7726
89.0898 93.2467 91.1512 88.9014 80.2294 70.1555
58.1396 41.9769 27.0360 14.3045 4.3464 -2.7851
-3.8471 -4.0391 -3.7607 -3.3630 -7.3132 -12.0956
-19.7875 -26.8271 -30.7800 -32.3197 -28.9529 -23.3115
-17.3035 -11.8201 -7.1791 -5.9876 -7.6146 -10.4312
-12.8794 -13.0787 -10.9603 -7.2720 -5.4962 -2.8956
0.8112 4.2515 7.5605 9.3040 9.2388 6.6124
1.6664 -5.6240 -15.1623 -27.3381 -38.9746 -47.8790
-53.1925 -53.9403 -52.6753 -48.2750 -43.8058 -42.7475
-41.4826 -40.6540 -41.1592 -41.3604 -41.5166 -38.9821
-31.6458 -21.0253 -7.5873 5.5842 18.0512 30.8268
42.4982 55.5044 68.1284 78.2060 85.7453 88.6032
87.1756 79.2559 62.8544 40.3622 14.9975 -9.5809
-31.6983 -50.6426 -66.8751 -79.8106 -89.3287 -97.2282
-102.9596 -107.6043 -112.0533 -116.7614 -120.9844 -123.0569
-123.1589 -118.0181 -108.3668 -96.4731 -79.3505 -59.5886
-39.3333 -19.1865 -0.8365 17.6218 33.7643 47.7507
59.7978 66.8870 71.6548 73.9082 72.4705 69.7348
66.9209 64.9706 64.5738 63.6671 61.0792 54.3115
43.2988 30.1190 13.3775 -3.9509 -21.5127 -36.5767
-47.3212 -56.9477 -62.9391 -67.0923 -70.3333 -72.1715
-74.1779 -75.9812 -77.7588 -78.9402 -79.5961 -78.2457
-75.1563 -72.1266 -68.5669 -64.7095 -58.7043 -50.2151
-39.9621 -27.5677 -13.6236 2.2213 19.0995 37.5873
57.2059 77.1699 96.0738 112.1851 126.9100 136.2802
139.4091 136.6403 126.0309 110.9099 91.5256 68.0679
42.2328 18.1945 -2.8397 -22.8295 -38.1654 -50.4330
-59.7968 -66.4423 -71.5582 -74.6155 -75.6720 -72.5743
-68.2585 -59.5571 -48.5554 -35.7182 -14.6977 8.6965
34.7126 62.8480 91.1845 118.1698 140.4690 160.6682
176.3201 184.6936 187.6507 184.1708 171.3823 151.2529
128.7102 105.0257 76.9224 49.7057 27.9714 5.7420
-15.6882 -35.4493 -54.5268 -71.1690 -86.1623 -99.3550
-110.4495 -118.7191 -124.7951 -129.3562 -131.7033 -131.2422
-127.2552 -117.8961 -104.6905 -91.1515 -73.6201 -55.2086
-40.6049 -26.0131 -12.1424 -0.1412 9.5266 15.5015
19.0869 20.2159 18.4705 16.6791 16.4816 17.9037
21.2687 27.4704 35.2431 41.5459 47.0835 50.2262
49.9910 47.3811 42.5895 37.7206 30.0444 20.8184
13.1495 3.8712 -4.2846 -10.6049 -15.7952 -18.3013
-19.5047 -17.1300 -13.8275 -11.6972 -8.2853 -4.3894
0.2131 5.1186 10.5230 15.2053 17.9778 19.3108
17.9640 13.6565 7.6660 -0.0727 -9.4521 -17.3525
-24.0228 -28.6473 -28.8283 -27.5330 -25.3631 -21.8558
-18.7902 -16.0453 -14.2117 -13.8434 -15.1864 -19.7650
-24.9526 -30.5563 -37.0769 -40.7469 -42.5603 -41.2779
-36.7260 -30.4948 -21.1844 -12.9928 -6.8020 -2.2244
-2.5956 -7.7005 -16.2155 -27.4119 -40.3456 -52.0565
-61.2090 -67.8600 -70.3256 -67.4209 -60.0001 -50.4792
-40.2216 -32.2928 -25.1724 -17.1416 -11.7004 -6.3576
-1.6753 0.9043 4.8517 7.8033 10.2772 15.2985
20.9280 27.7434 35.6043 43.9630 51.9203 57.7308
61.7544 64.2697 65.1084 62.1935 56.7064 47.1314
33.3581 19.2513 2.4557 -15.1952 -32.2600 -50.2333
-66.6054 -80.5652 -92.0602 -99.3819 -101.1383 -95.5328
-83.7576 -69.8777 -55.8353 -41.3611 -24.3845 -8.4129
4.8376 17.6160 29.1918 41.4944 53.6389 65.5261
78.2999 89.8804 99.6226 107.2455 110.9964 109.4420
103.2053 93.9481 82.8949 68.3950 50.8865 33.6490
16.5392 0.0338 -13.8754 -27.0534 -38.6311 -49.0670
-60.5602 -71.0484 -82.0822 -90.5852 -97.1784 -103.6218
-105.4517 -106.1527 -103.4041 -97.0829 -92.9398 -89.0787
-85.9682 -83.3749 -79.1408 -73.2643 -65.8783 -59.2779
-53.0283 -46.3663 -41.1346 -34.9742 -29.4302 -26.4262
-22.5137 -19.5097 -16.8567 -12.0439 -6.4494 1.3812
10.4004 17.5962 22.5707 24.7635 24.3317 21.6208
18.6884 16.1438 11.9547 8.6568 7.1713 6.6477
7.3872 9.4826 12.9082 16.0132 19.9542 23.6316
25.8611 27.7857 27.5698 24.0881 20.0598 15.0164
9.4375 5.8676 1.9468 0.7856 -1.1325 -4.3992
-5.6605 -9.9754 -12.1646 -14.2839 -18.6263 -22.9670
-29.1476 -33.9678 -39.1866 -42.4129 -43.3720 -44.4533
-43.3931 -40.3653 -36.1009 -32.7470 -27.7229 -23.1444
-20.3875 -16.9628 -16.0690 -14.7884 -13.2405 -11.9893
-9.8038 -9.7873 -9.8167 -10.5572 -14.8904 -19.0712
-23.5560 -30.7004 -35.2458 -37.9375 -38.6641 -37.2476
-36.3859 -32.7049 -28.4452 -22.8800 -14.6352 -5.2053
6.2420 17.5073 29.2991 41.7017 53.1104 64.6330
77.4316 90.3091 101.6755 112.3089 120.0466 125.6017
129.2992 128.1169 125.3205 120.4039 111.6446 100.0688
86.3019 71.0377 55.2764 40.3447 24.2941 10.0477
-2.4863 -14.8807 -24.2977 -33.1921 -41.6657 -49.6726
-56.7609 -62.7027 -67.4485 -67.7204 -66.6493 -63.2494
-56.8850 -49.8133 -40.2612 -29.7941 -16.4453 -2.6325
10.2910 23.6711 35.2341 45.1885 53.3479 58.9351
61.4192 62.6207 60.3269 57.9595 56.9076 54.2794
52.9997 52.2611 52.4880 50.8308 46.5774 41.0637
31.5667 21.4000 10.3910 -3.3658 -16.7018 -30.5770
-43.5511 -56.0383 -68.8525 -79.8992 -91.0599 -99.7852
-107.1546 -113.8892 -117.8908 -120.5880 -121.5783 -121.2513
-118.3750 -113.7294 -106.3453 -93.9500 -79.6761 -63.0468
-43.5899 -24.6152 -6.3222 11.6631 27.3572 41.3151
53.9143 64.0277 72.0383 78.9520 84.5438 88.6630
93.4418 95.2672 93.3766 90.6050 83.7427 74.5765
63.8779 49.9181 35.9427 23.1579 10.8646 -0.3567
-10.6630 -19.4738 -26.8606 -33.8653 -41.1052 -47.6551
-52.5451 -56.3097 -56.9427 -54.4623 -48.0897 -38.2602
-27.0297 -13.6441 -0.5378 9.6123 18.9623 28.8625
36.6536 44.2388 51.3969 56.9694 62.1065 65.8013
67.3740 65.9234 61.6783 54.3576 46.8018 38.4421
29.9758 23.9596 17.9130 12.4939 7.2769 2.5119
-1.5706 -4.0629 -5.6595 -6.0270 -5.9112 -7.8404
-8.9409 -11.7796 -15.0013 -18.4499 -21.7736 -22.2127
-22.9210 -21.5605 -19.3493 -17.5396 -14.8415 -12.5109
-10.8353 -8.3660 -5.3381 -3.5541 0.0580 3.3871
6.4582 12.0803 15.8669 18.5429 22.0595 24.7052
25.6487 26.1594 26.0179 23.8701 22.0457 20.1165
18.1534 17.2393 16.8994 18.1735 19.3044 20.1569
21.6607 22.9771 23.0827 23.0487 22.6087 20.3470
18.4876 14.7395 11.3304 8.9089 5.4345 3.8976
2.9891 4.2357 7.7458 11.6868 15.8446 19.6772
21.6541 20.8402 18.9964 16.2377 12.2058 7.5611
3.5705 1.0727 -1.2120 -3.7548 -5.0942 -6.2940
-6.9738 -7.1484 -7.8723 -8.5658 -10.1937 -11.9244
-13.5284 -16.1530 -18.3835 -21.6658 -25.8530 -28.4794
-32.4994 -34.4856 -32.7291 -30.0678 -24.3474 -16.6868
-8.0635 0.5553 8.8708 17.5621 25.4754 32.8971
39.3680 43.4781 46.3929 47.8701 47.2564 46.8605
44.6585 40.2692 35.5096 30.1291 24.9930 19.4985
14.1777 8.5978 2.6257 -3.6992 -11.1990 -17.9107
-24.4064 -31.0088 -36.9386 -42.9769 -48.3629 -53.5294
-58.1263 -61.0228 -62.3191 -61.3131 -58.1815 -52.2434
-45.3122 -37.2704 -26.7923 -16.4327 -4.8330 6.2110
16.3492 27.0992 35.9705 43.9747 50.4300 55.5175
58.8825 59.8838 59.9655 57.2941 53.7178 49.4406
43.5585 37.5808 31.0042 23.7781 16.6228 11.3102
6.5204 4.0327 4.2330 4.1420 6.0666 7.3132
7.0330 6.7868 5.5521 4.4855 3.5871 3.3638
3.2931 2.6418 0.8697 -1.5951 -4.3409 -8.4335
-12.7080 -16.9457 -21.2670 -26.1625 -31.3556 -35.5841
-40.1342 -43.4735 -44.0017 -42.9104 -39.4609 -34.9246
-30.1734 -24.6532 -19.9939 -15.0460 -8.4704 -0.7804
8.4428 18.8998 30.1954 41.7235 53.5226 65.8113
77.0133 86.6325 94.9379 101.2481 104.6792 105.6401
105.3011 103.8249 100.5389 94.0339 85.6963 75.6187
62.2717 48.4258 33.6779 18.1830 2.9050 -12.6835
-26.8086 -40.1796 -52.3149 -63.2615 -73.3207 -81.8283
-89.2565 -93.8929 -95.8395 -93.7818 -86.3756 -76.5406
-64.3336 -50.2958 -36.7090 -23.5329 -10.9337 0.1268
9.6909 17.3818 23.0498 27.6733 30.0581 31.6520
32.2445 30.4688 27.2287 20.8229 13.3249 4.9101
-4.8037 -13.4013 -20.6687 -27.1911 -32.6644 -36.8957
-41.3796 -45.3482 -49.0246 -52.6294 -54.0699 -53.6666
-52.3805 -48.8097 -43.5845 -36.9574 -29.5880 -21.8870
-12.4332 -4.0175 4.5875 12.6027 18.7787 23.9553
26.7976 28.7295 28.3565 28.1149 26.9510 23.7899
21.8644 17.2004 10.8406 4.1887 -3.2175 -10.3866
-18.6452 -27.3724 -35.7413 -43.7234 -51.2536 -56.7912
-60.1736 -62.6329 -62.9590 -62.0009 -60.9839 -59.1127
-56.3880 -51.9215 -45.4248 -36.2568 -24.4751 -12.0550
1.7293 16.1897 30.5242 44.4307 56.4301 67.4189
76.8644 83.9196 89.0062 92.3197 93.9071 93.2925
90.9160 86.7077 80.5141 72.7920 64.1144 54.8673
45.0672 35.1596 23.9116 10.9403 -2.4636 -16.5042
-30.0727 -41.8268 -52.0881 -60.4707 -66.7148 -71.2143
-74.5545 -76.2200 -75.7139 -74.1843 -72.0751 -69.3964
-64.8573 -58.9734 -53.5350 -47.6355 -42.3184 -37.4192
-32.4154 -28.5929 -24.7328 -21.1951 -18.1185 -14.5845
-11.4170 -8.2670 -4.3765 0.5731 5.8581 11.0696
16.2103 21.2133 26.2281 30.3749 33.9080 37.0985
40.8732 45.0374 49.1382 53.8692 57.8268 62.0553
64.9821 66.1377 67.0417 65.7188 63.7116 59.1817
51.7269 43.7126 33.5073 22.6655 12.3105 2.1208
-7.0418 -15.3868 -21.9624 -26.0367 -29.0829 -30.3865
-30.1476 -28.9984 -25.5250 -20.6939 -14.0475 -5.5086
2.6765 10.8065 19.2057 26.8405 34.4313 42.1461
48.2643 54.2217 59.3266 61.1823 61.3678 57.9247
51.6210 45.1491 36.7122 28.4472 21.1072 14.0804
8.4702 3.0713 -2.0079 -6.5662 -10.7562 -14.9305
-19.4503 -23.4519 -27.6786 -32.1653 -36.5656 -40.6959
-44.9051 -50.0771 -54.3314 -58.0399 -61.4922 -63.3148
-64.6698 -65.2927 -64.2537 -62.6231 -61.1331 -58.6472
-56.0778 -53.5708 -49.0373 -44.1180 -38.8155 -32.1903
-25.7276 -18.7303 -11.6337 -5.0314 1.2742 6.6510
11.0614 14.3382 17.5672 22.0420 26.9622 31.0631
35.4248 38.6878 39.7654 39.1361 36.2350 31.6803
25.8157 20.1054 13.7924 8.1593 3.8104 -0.4650
-3.1631 -4.8231 -5.5773 -5.3596 -3.7832 -2.0773
-1.0273 -0.4247 -1.0631 -2.3309 -4.2362 -6.1800
-7.3375 -7.4983 -5.4451 -1.6741 2.1805 6.8408
11.8686 16.7254 21.4390 24.9712 27.5829 28.0496
26.5917 24.9436 22.7682 20.9897 18.8695 17.1084
16.1172 14.7824 15.2233 15.8140 17.2030 18.9484
19.5171 19.9938 18.3972 16.3155 13.3814 9.7297
6.6238 3.4894 0.7114 -2.4148 -5.7559 -9.3276
-12.9462 -16.6373 -19.0690 -19.8912 -18.4453 -15.4321
-13.0152 -9.4563 -6.3412 -3.8241 -1.2510 0.5339
2.1829 1.9918 1.8053 2.3657 2.2472 4.0027
5.7803 7.6653 11.2985 13.9038 16.7332 18.7148
18.8544 17.5931 14.4191 10.3403 4.0182 -2.0798
-6.6133 -11.1000 -14.3474 -16.7295 -17.7859 -17.7005
-17.8172 -17.7501 -18.1424 -18.9903 -20.0523 -20.8350
-21.1391 -21.5323 -21.4450 -21.1722 -20.3371 -19.1916
-18.0892 -16.6369 -14.9567 -13.0845 -11.5154 -9.3777
-7.5055 -6.7495 -5.9834 -5.6021 -5.5397 -5.4938
-5.7436 -6.2425 -6.9838 -8.5538 -10.5363 -12.3093
-14.5554 -17.6025 -20.6497 -23.9715 -28.4802 -33.5962
-39.2881 -45.0435 -51.0211 -56.2124 -60.2535 -63.7325
-65.5027 -66.8724 -66.8724 -65.9914 -65.1215 -62.3766
-59.4057 -56.9823 -53.8865 -50.5500 -47.4312 -43.6013
-39.5676 -35.1324 -29.8768 -24.9051 -19.8727 -15.2216
-11.8410 -8.9234 -5.9057 -3.3932 -1.0626 1.4159
3.4911 5.3744 7.5846 9.7480 11.3216 12.5811
13.4850 13.9186 13.5328 12.8107 12.9669 13.3288
14.3678 16.2207 17.7613 19.8659 21.2677 22.1175
23.9079 24.8486 25.5697 27.0579 27.4033 27.3353
26.9008 24.7080 22.7806 20.1551 17.2228 15.0530
12.1638 9.6375 6.9247 3.2382 -0.6964 -4.9295
-10.8566 -16.5348 -22.3021 -29.4648 -34.8389 -40.1863
-45.5292 -49.7494 -53.5361 -56.1680 -57.8666 -58.2249
-57.5414 -55.6013 -52.0544 -47.3215 -41.2364 -34.0388
-26.5271 -18.6285 -11.5467 -5.8520 -0.9694 3.0359
6.5212 9.4122 12.7707 16.1321 19.6257 23.9304
28.2931 32.7770 37.9260 43.1310 47.3357 50.7778
52.6353 52.8319 51.3639 48.3599 44.6467 40.3190
35.7606 31.8711 28.6090 25.1677 22.1169 19.7477
17.8148 16.7088 16.7345 17.2939 17.7018 17.5851
17.5107 17.0541 16.2191 16.9990 18.3687 19.6594
21.9707 25.0197 27.9180 31.2490 34.6985 38.0212
42.1827 44.9019 46.4645 47.2903 46.0428 43.1178
39.0381 34.0480 27.8324 21.7455 15.3838 8.6970
2.3234 -3.8986 -9.1331 -13.5003 -16.7983 -19.4008
-21.3217 -23.5797 -25.9296 -27.6769 -30.4476 -32.7653
-34.5411 -35.3219 -33.8402 -30.5790 -24.6987 -17.7455
-10.2558 -1.6288 6.7098 14.4870 22.6437 30.6800
36.8845 42.6205 47.6823 51.1226 54.1945 56.1062
57.7635 59.2875 60.2410 61.6548 62.3392 61.8900
60.0848 56.2559 50.5373 43.3884 34.9865 25.3471
16.0109 6.5718 -2.8517 -10.8366 -17.9855 -23.6095
-27.5000 -29.4190 -30.4636 -30.4443 -28.8853 -28.2662
-26.5134 -24.4584 -22.3933 -19.4022 -15.3574 -9.7335
-5.5968 0.9283 6.0627 9.5213 14.7484 16.6206
20.2667 23.3773 24.9050 26.9333 27.3201 28.1983
28.5593 29.7122 32.0933 34.9475 36.9713 38.7838
40.3749 39.5711 38.5661 36.4440 33.4437 30.3772
26.0926 21.5949 16.3393 10.3847 3.9642 -1.9271
-7.6548 -14.2406 -18.6272 -23.1276 -28.2868 -31.6435
-35.4541 -39.1966 -42.8648 -46.1279 -48.1461 -49.5388
-50.1166 -48.6018 -45.9184 -43.6623 -39.4705 -35.3577
-31.9587 -27.3774 -22.5840 -17.0170 -10.6287 -4.3295
1.9393 8.4975 12.3641 14.8279 16.7157 15.4801
13.5923 10.1244 5.5670 0.6026 -5.9474 -11.2333
-15.8844 -19.5783 -21.1529 -21.9007 -22.3251 -22.9571
-22.8230 -22.5272 -22.2406 -20.8865 -18.8159 -16.5671
-13.9241 -10.7346 -8.2102 -5.6747 -3.5683 -0.7306
3.0350 5.1423 8.4311 11.6776 13.9760 17.6947
20.7336 23.2718 25.7144 27.9523 29.7418 30.2617
30.1395 29.0629 27.4956 26.1388 24.7360 23.8431
23.6373 22.7986 21.2846 19.4262 17.0809 14.2349
10.8001 7.9835 5.0649 2.0196 -0.5223 -2.6802
-3.9920 -5.4683 -5.9644 -6.0379 -6.3264 -5.8340
-5.3104 -4.9585 -4.8180 -3.9159 -2.3422 0.0178
3.0539 6.5741 10.9459 14.9099 18.5082 22.1286
24.5750 25.8215 27.1104 27.6643 27.2996 26.9230
25.5101 23.1142 20.9894 18.6184 16.2731 14.0701
12.0142 10.5186 8.1715 5.4229 2.8203 -0.6237
-3.7131 -5.3575 -6.8136 -7.0524 -6.3515 -5.9666
-4.7907 -3.9869 -3.3714 -2.2553 -0.5154 2.3774
5.5431 8.7445 12.0471 14.9886 17.6940 19.6810
20.4968 20.6823 20.2873 19.7214 19.3741 19.0958
19.2005 19.4421 19.0562 18.5115 17.5901 16.3186
14.8121 13.1052 11.9560 9.6088 6.8832 4.4102
0.6373 -2.8756 -5.9742 -8.2286 -9.4265 -10.0825
-9.8730 -9.4367 -8.4703 -7.5728 -6.3307 -4.4751
-2.9988 -1.4601 -0.0123 1.3950 2.5488 3.6898
4.7572 5.2772 5.9156 6.3088 6.1021 5.9266
5.7659 5.4177 5.8954 6.7185 7.4855 9.0794
10.6769 12.1366 14.3827 16.5755 17.9718 19.5418
20.7902 21.1742 21.0291 20.7828 20.9702 21.1108
21.5324 21.8383 21.5223 20.9775 19.8237 18.2785
16.1234 13.6035 10.8283 7.6415 4.8387 1.8623
-0.6218 -2.2018 -3.5716 -4.4443 -4.6510 -4.3442
-4.3203 -3.9813 -3.4954 -3.2510 -3.0875 -3.6571
-4.4333 -5.6956 -6.4241 -6.1935 -6.0970 -5.2942
-4.5253 -3.9382 -3.0885 -2.8984 -2.4152 -0.8875
0.4776 2.0559 4.8146 7.4832 10.0830 12.6938
14.6036 15.9311 16.5888 17.3788 17.3136 16.1441
14.4961 11.8090 8.9897 5.6440 2.4131 -0.4366
-3.5085 -6.1074 -9.4889 -13.6679 -17.9166 -22.2343
-26.5115 -30.4893 -33.8782 -37.1890 -39.3460 -39.7924
-39.1806 -37.0834 -33.2627 -27.6002 -20.6809 -13.0507
-4.8894 3.2902 11.4441 18.9733 25.6225 31.3805
35.9205 39.5115 42.0258 43.4377 44.1791 44.6476
44.6999 44.0468 43.0445 41.4663 39.3120 36.4863
33.1488 29.4623 24.8865 20.4568 16.0886 11.6515
7.7877 4.7120 2.6561 1.6098 1.5124 1.7319
2.7222 3.9477 5.3532 6.9507 7.7417 8.5684
9.3006 9.7085 10.1136 10.7199 11.2747 11.7864
12.5810 12.7069 12.4836 12.0711 10.5324 7.8077
3.9650 -0.7367 -5.8829 -11.3893 -16.8397 -21.6607
-25.7147 -28.7518 -30.7058 -31.6768 -31.9202 -31.4407
-30.4072 -29.5088 -28.8768 -28.5314 -28.6940 -29.3031
-29.9029 -30.9796 -31.9139 -32.1390 -32.4293 -31.8799
-30.3715 -28.4745 -26.3010 -23.9428 -22.1074 -21.3082
-21.0648 -21.9898 -23.3614 -24.6888 -26.6263 -27.9363
-28.6345 -29.0267 -28.7355 -28.3938 -28.2946 -28.1072
-27.8426 -27.7444 -27.4394 -27.5542 -28.0576 -28.8054
-30.4801 -31.9270 -33.5374 -35.7504 -37.4040 -39.2303
-40.7047 -42.0377 -43.9953 -45.1290 -46.1680 -46.6686
-45.5451 -43.0372 -38.8124 -33.6266 -28.2176 -22.6029
-17.0065 -11.9273 -7.6005 -3.6806 0.0922 3.1835
5.6574 8.0651 10.5602 12.8384 15.1488 18.0995
21.1475 23.7804 26.5822 29.2785 31.0671 32.0224
31.7863 30.8980 28.9036 26.5041 24.6475 22.2774
20.5577 19.2027 18.4374 18.5164 18.5440 19.2283
19.9063 20.4905 20.9489 20.1120 18.2389 15.7282
11.9388 7.2941 2.4547 -2.6714 -7.3730 -11.4096
-15.0309 -18.0450 -20.2562 -22.3149 -24.2606 -25.5191
-27.2792 -28.8309 -29.4950 -30.3770 -30.2428 -29.4115
-28.5856 -27.1176 -25.1903 -22.7743 -20.7974 -18.7938
-16.7783 -15.7696 -15.3416 -16.0489 -17.6566 -19.6096
-22.0946 -24.9608 -27.5238 -30.0436 -32.9852 -35.6235
-38.4401 -41.3238 -43.5359 -45.5606 -47.3685 -48.4727
-48.9715 -49.1599 -48.8631 -48.2082 -47.6101 -46.3663
-44.2387 -41.7823 -38.2188 -33.8571 -29.1693 -23.5462
-18.4606 -13.7195 -8.9977 -5.6961 -3.3361 -1.9443
-1.8313 -2.8024 -4.0977 -5.6548 -7.8136 -9.0519
-10.0762 -11.1704 -11.1143 -11.0050 -10.7542 -10.5420
-10.4291 -10.3197 -11.3578 -12.5466 -13.6012 -15.0086
-16.5087 -18.2248 -19.4888 -19.9114 -19.5623 -18.2110
-16.0063 -13.4864 -10.8610 -7.4032 -4.2412 -1.5450
1.7465 4.2305 6.5290 8.8458 10.5517 12.1832
13.3940 14.3926 15.4554 16.6956 17.9183 18.9545
19.9476 20.2213 19.5966 18.1911 15.6354 12.1758
8.1043 3.9153 -0.2095 -4.0632 -7.0075 -9.2811
-11.2121 -12.5791 -13.3792 -14.7150 -16.1453 -17.0199
-17.8568 -18.3942 -18.7763 -18.7378 -18.1452 -16.8987
-14.9465 -12.8043 -10.2771 -6.9681 -3.4910 -0.0884
3.4273 6.3237 8.7251 10.7020 12.2297 13.1447
13.5415 13.8759 13.9778 14.1221 14.4050 14.9902
15.1638 15.4945 16.1945 15.8537 15.3043 14.5042
13.6011 12.8653 11.2604 9.1567 6.6827 3.7155
0.5076 -2.9272 -6.0360 -8.3344 -9.8401 -10.4528
-10.2958 -10.0744 -9.3854 -8.0818 -7.1136 -6.1665
-4.7996 -3.4372 -2.4644 -1.5788 -1.0331 -0.6087
0.1446 0.8997 2.0682 3.2652 4.6248 6.1387
7.2897 8.6456 9.5082 9.8279 9.7333 8.6199
6.8533 4.3822 1.1862 -2.4094 -5.8975 -9.5786
-13.2412 -16.2443 -18.8698 -20.6336 -21.4448 -21.1673
-19.6883 -17.0142 -13.4902 -9.3205 -4.5233 -0.0578
4.3204 8.1788 11.5511 15.0548 18.0018 20.7917
23.0672 24.5269 25.5319 25.8672 25.3473 23.5825
21.3447 18.2801 14.0910 10.3191 6.5159 2.3645
-1.3827 -5.0306 -8.7861 -12.3752 -16.0370 -19.2789
-22.2415 -25.2281 -27.2261 -29.2205 -30.5066 -30.2908
-29.8443 -28.5068 -26.5703 -24.6237 -22.4750 -20.2463
-17.6539 -14.6463 -11.0535 -6.9416 -2.8858 1.3528
5.3361 8.4898 11.2494 13.2732 14.6438 15.3438
15.1343 14.7999 14.0154 12.2102 10.0514 7.3708
3.8432 0.1915 -3.3306 -6.7957 -9.9081 -12.5722
-14.9322 -17.0184 -18.8603 -19.9278 -20.3458 -20.6958
-20.1952 -19.4878 -19.4428 -19.5356 -20.1428 -20.9595
-21.2811 -20.9403 -19.8057 -18.1017 -15.3347 -11.9973
-9.0126 -5.6871 -2.6096 -0.3645 1.3773 2.3180
2.4466 1.5454 -0.0595 -1.9639 -4.2256 -6.5379
-8.7794 -10.8858 -13.0125 -15.2402 -17.6866 -20.1118
-22.6161 -25.4712 -27.9681 -30.6736 -33.3248 -35.5975
-38.0016 -39.6782 -41.1085 -41.9105 -41.7516 -40.9735
-39.0241 -36.4225 -32.5413 -28.3026 -24.3763 -20.4372
-17.3542 -14.8730 -13.5777 -12.9117 -12.5580 -12.5479
-12.4009 -12.2659 -11.7074 -10.8953 -9.5559 -8.2689
-7.2566 -6.0109 -4.9122 -3.7860 -3.0033 -2.9436
-3.1935 -3.4838 -4.2857 -4.9610 -4.5908 -3.7107
-2.2455 -0.0058 2.9375 5.8689 8.7066 11.8980
14.1404 15.6139 16.4581 16.1843 15.3952 13.8776
12.3683 10.4703 8.4346 6.7728 4.6057 3.3131
1.9324 0.6573 -0.0234 -1.0174 -1.6228 -2.7041
-3.4179 -3.7440 -4.0205 -3.7477 -3.2627 -2.6463
-2.3698 -1.6541 -0.8154 0.2695 1.8477 3.1164
4.5081 5.3955 6.3050 7.1014 6.8965 6.9627
7.1593 7.5423 8.2543 9.1159 9.8077 10.4645
11.5908 12.1980 12.6022 12.7547 12.8502 12.7794
12.6297 12.7335 12.5277 13.1937 13.5161 13.4693
13.4086 12.2778 11.1065 9.5531 7.8104 6.3506
5.0526 4.0898 3.3053 2.8212 2.5979 2.2791
1.8317 1.2833 0.4997 -0.1709 -0.7295 -0.8939
-0.6891 -0.6073 -0.4365 -0.0727 0.4068 0.8165
1.2630 1.8482 2.3222 2.6924 3.1958 3.9886
5.0147 6.1961 7.9654 9.7034 11.3873 13.5930
15.2520 16.7476 18.2597 19.2573 20.1199 20.8319
21.4611 22.0362 22.9355 24.3686 25.6795 27.4213
29.4965 31.0811 31.9740 32.3259 31.9703 29.5635
26.2058 22.2804 18.0528 14.4747 11.0729 8.5540
6.9601 6.0341 5.4131 5.0860 4.4632 3.6254
3.0420 1.4381 -0.3257 -2.0987 -4.4578 -6.0176
-6.0176 -6.8867 -7.1577 -6.0103 -4.0315 -1.3978
1.8680 5.2403 8.8074 12.2496 15.0184 17.6834
20.3658 22.1177 23.8484 25.3146 25.9071 26.6889
27.3402 28.0898 28.9258 29.6101 30.2651 30.2844
29.6625 28.2221 25.8960 22.8976 19.7402 16.9098
14.3183 11.6836 9.1004 7.2061 5.1383 2.8297
1.3727 0.4017 0.3337 1.4444 3.2238 5.9172
9.3043 13.0882 16.8730 20.4668 24.2286 27.6607
30.5801 33.4086 35.7576 37.6206 39.1667 39.8281
39.7675 39.0500 37.6950 36.3014 34.7489 32.9704
30.8502 28.2660 25.0461 20.4933 15.4454 10.1567
4.2994 -1.0747 -5.9564 -10.4844 -14.4998 -17.7546
-20.1228 -21.6607 -22.2541 -21.9868 -20.3755 -17.9622
-15.2495 -12.1380 -8.9889 -5.6652 -2.6851 0.1480
3.1244 5.6736 8.4048 11.2728 14.1610 17.2513
20.2544 23.4338 26.5103 29.0430 31.1394 32.9583
34.0846 34.5430 34.5724 33.7594 32.4714 30.7113
28.2594 25.4493 22.4205 19.4229 16.6495 14.1379
11.8450 9.8377 7.9334 6.0612 4.6364 3.3962
2.4527 1.8786 1.1078 0.2094 -0.9720 -2.2737
-3.4799 -4.4574 -5.1344 -5.8262 -6.3167 -6.9469
-7.8702 -8.8559 -10.0565 -11.2287 -12.0197 -12.5571
-13.1763 -13.5989 -13.7229 -13.7872 -13.7982 -13.7229
-13.6136 -13.5585 -13.3977 -13.0413 -12.5406 -11.9995
-11.2123 -9.9969 -8.9010 -7.8794 -6.7275 -5.8547
-5.2328 -5.1529 -5.4460 -5.7004 -6.1368 -6.0394
-5.0813 -3.9872 -2.6469 -0.6479 1.2712 3.1479
5.0688 6.4891 7.8376 8.6313 8.9905 9.1366
8.7654 8.0866 6.9373 5.6080 3.9205 2.3661
1.0626 -0.1785 -1.0972 -2.1417 -2.5229 -2.2832
-2.0691 -1.4049 -0.1473 1.4392 2.9807 4.3917
5.3002 5.1845 4.6664 3.5429 1.9876 0.9394
0.1521 0.1971 1.0864 2.5305 4.6112 7.1807
10.0514 12.5272 14.5794 15.7590 16.0943 15.9675
15.0057 13.8923 12.7963 11.8014 11.5203 11.7114
12.1422 12.8689 13.9400 14.8054 15.2187 15.4806
15.0378 13.8022 12.1982 9.9209 7.1686 4.2216
1.1790 -1.3886 -3.3196 -4.2539 -4.2566 -3.8947
-3.0725 -2.3458 -2.0721 -1.9775 -2.2806 -2.7188
-2.9898 -3.0312 -2.6499 -2.0841 -1.3593 -0.3570
0.9631 2.4963 4.0699 5.7134 7.1180 8.1864
8.9130 9.0876 8.8083 8.3324 7.6554 7.0436
6.8764 6.9903 7.5644 8.5510 9.6378 10.5592
11.1710 11.5366 11.4659 11.2895 10.8724 10.1871
9.5634 8.6557 7.7426 6.9700 6.5869 6.7835
7.3365 8.1936 9.1913 10.2348 10.9863 11.7028
12.2650 12.4387 12.4506 12.5250 13.0587 13.8956
15.3994 17.6033 20.1994 23.3586 26.7778 29.8755
32.9851 36.2160 38.6899 40.8974 42.8688 44.2017
45.1158 45.1498 44.7832 44.0676 42.7714 41.1500
38.7128 36.1589 33.3176 29.6852 26.1007 22.0954
17.4332 12.5791 8.0226 3.9337 0.3519 -2.4335
-4.8164 -6.7520 -8.2154 -9.4740 -10.1924 -10.4634
-10.4266 -9.9012 -8.8052 -7.2986 -5.6047 -3.4192
-1.0142 1.4514 3.9750 6.0373 7.7377 8.8410
9.1874 8.9779 8.3440 7.5503 6.8595 6.2706
5.5504 4.9101 4.1660 3.3668 2.5822 1.6452
1.3026 1.3246 1.4385 1.9263 2.1707 2.3498
2.4453 2.2487 2.2451 2.3985 2.8275 3.3447
3.9464 4.5582 4.8650 4.8871 4.9872 5.3023
5.0800 4.7575 4.5435 3.9454 3.1591 2.6630
2.3166 1.7315 1.7636 2.2826 2.9064 3.8544
4.9458 6.3412 7.6512 8.9593 9.9193 10.2574
10.5275 10.3070 9.8302 9.1247 8.2593 7.5281
6.4771 5.1570 3.9315 2.8145 1.2068 -0.7775
-2.6662 -4.8553 -7.5461 -10.1725 -12.5233 -15.0183
-16.9898 -18.1840 -18.8656 -18.8620 -18.4899 -17.1313
-15.0349 -12.5362 -9.1014 -5.2274 -1.1863 2.7354
6.4146 9.7428 12.6816 15.2280 17.2619 18.9816
19.9554 20.1988 20.1290 19.2774 17.4723 14.8844
11.4487 7.6648 3.5823 -0.9843 -5.4820 -9.6012
-13.3419 -16.4203 -18.7877 -20.7894 -22.2850 -23.2027
-23.7594 -24.3896 -24.9518 -25.1521 -24.8802 -23.8972
-22.6993 -21.3011 -19.8671 -18.8511 -18.3275 -18.6206
-19.1010 -19.4859 -20.1519 -20.2594 -19.9737 -19.8690
-19.4547 -18.7960 -18.1080 -17.6156 -17.5513 -17.7966
-18.3542 -19.1847 -19.7377 -19.5999 -19.0359 -18.0713
-16.5546 -15.0976 -14.0972 -13.2594 -12.6825 -12.3252
-12.1010 -12.0073 -11.9145 -12.1920 -12.6100 -13.0408
-13.6003 -14.2011 -14.9048 -15.0857 -14.9388 -14.9094
-14.4859 -13.7004 -12.9582 -12.3261 -11.6069 -11.0015
-10.6377 -10.2712 -9.9083 -9.3764 -8.5836 -7.4160
-5.8020 -3.9141 -1.6828 0.7994 3.2531 5.6912
8.0962 10.1393 11.9178 13.4326 14.4946 15.0972
15.2791 14.9557 14.0095 12.7161 11.0790 9.1940
7.2161 5.0509 2.8709 0.6992 -1.8215 -4.4167
-6.9375 -9.4748 -11.8477 -14.2830 -16.6550 -18.8496
-20.8688 -22.6841 -24.1300 -25.2600 -26.0978 -26.4046
-26.5700 -26.6802 -26.3146 -25.7597 -25.0671 -23.8113
-22.3993 -20.5960 -18.6678 -16.8342 -15.0474 -13.8109
-12.7875 -11.9516 -11.3875 -11.2902 -11.1432 -11.3232
-12.2529 -13.1624 -14.6488 -16.1452 -17.2246 -18.2875
-18.8764 -19.2540 -19.1814 -18.6541 -18.0827 -17.3000
-16.4696 -15.6262 -14.8849 -13.9644 -12.8317 -11.6246
-9.9490 -7.8710 -5.5763 -3.1345 -0.4245 2.2570
4.9211 7.5778 10.0085 12.2197 13.7676 14.8682
15.3688 15.0785 14.5172 13.7575 12.8425 12.0167
11.3020 10.6323 10.2281 10.1049 10.0664 9.8955
9.7990 9.5749 8.9612 8.4431 7.4849 6.4386
5.7331 5.0138 4.7777 4.6445 4.8383 5.3977
5.9342 6.6774 7.3572 7.9130 8.1169 8.0710
7.7504 6.8492 5.4583 3.7487 1.6910 -0.7407
-3.2073 -5.6160 -7.9741 -10.3323 -12.6041 -14.7951
-16.6976 -18.3760 -19.7889 -20.7498 -21.4452 -21.4636
-21.0796 -20.2400 -19.2258 -18.0867 -16.7647 -15.7138
-14.2917 -13.2665 -12.2762 -11.1151 -10.4491 -9.7004
-9.2282 -8.5309 -7.6628 -6.9270 -6.0644 -5.4213
-4.7461 -4.3658 -4.3621 -4.5569 -5.2174 -6.4980
-8.3491 -10.3646 -12.9965 -15.9178 -18.4441 -21.1376
-23.9119 -26.7496 -29.5037 -31.7103 -33.3216 -34.3588
-34.6730 -34.0786 -33.0157 -31.4210 -29.3366 -26.7781
-23.6373 -20.3246 -16.7631 -13.2143 -9.9210 -7.1246
-4.8078 -2.9448 -1.7065 -0.7235 -0.0354 0.3394
0.3035 -0.1347 -0.6647 -1.3372 -2.1879 -3.0643
-3.8056 -4.6563 -5.7072 -6.6709 -7.6520 -8.5008
-9.1724 -9.7539 -10.0120 -10.0120 -9.4691 -8.2446
-6.4376 -3.9848 -1.5605 0.5404 2.2850 3.4893
4.3344 4.4566 4.1323 3.3800 2.0176 0.7067
-0.4517 -1.0250 -1.0112 -0.6594 -0.0815 0.2942
0.2299 -0.3048 -1.0434 -2.0906 -3.3134 -4.4764
-5.4713 -6.1639 -6.5709 -6.6876 -6.5048 -6.3146
-6.3569 -6.0638 -5.7395 -5.2178 -4.1650 -3.2886
-2.0971 -0.8266 0.2555 1.6068 3.3293 5.3430
7.1803 9.2105 11.1295 12.4487 13.2893 13.3866
13.0146 12.2392 11.2397 10.1135 9.0662 8.6271
8.4489 8.5591 8.9578 9.3528 9.8461 10.3670
10.6701 10.6058 10.3238 9.9508 9.4097 8.7933
8.3827 8.3459 8.4644 8.4672 8.5517 8.6555
8.7685 8.7777 8.4874 8.1879 7.6202 6.7254
5.8113 4.8954 3.8105 2.7669 1.8079 0.4510
-0.9729 -2.6173 -4.4123 -6.0365 -7.9730 -9.7827
-11.7340 -13.8156 -15.7567 -17.8292 -19.4828 -20.9875
-22.2185 -23.4026 -24.5730 -25.4512 -26.5196 -27.4190
-28.3652 -29.3573 -30.2273 -31.2378 -32.0683 -32.3962
-32.5157 -32.2603 -31.6034 -30.9402 -30.2172 -30.0757
-30.1906 -30.2503 -30.5672 -30.7436 -30.8180 -30.5498
-30.0298 -29.6440 -29.0882 -28.6647 -28.3184 -27.7865
-27.6726 -27.7176 -27.6249 -27.7976 -28.3726 -28.6106
-28.2633 -27.8059 -26.8459 -25.4385 -23.9310 -22.3271
-20.6101 -19.0852 -17.8634 -16.9061 -16.2218 -15.7735
-15.7790 -15.5383 -14.9044 -13.8921 -12.4480 -10.6814
-8.3830 -6.2288 -3.9542 -1.7035 0.3212 2.2696
3.6210 4.9117 5.8514 6.3750 6.8537 6.8380
6.4752 5.9221 5.1440 4.0848 3.2287 2.5406
2.0344 2.2209 2.6288 3.5125 4.7325 6.0525
7.5288 8.8691 10.2627 11.4882 12.8202 14.2450
15.6910 17.5200 19.4565 21.4215 23.2036 24.4934
25.2880 25.4350 25.1502 24.4962 23.6538 22.8463
21.8532 20.5781 18.8217 16.7878 14.2247 11.4587
8.6697 5.7318 3.0788 0.1244 -2.8033 -5.5437
-8.3768 -11.0629 -13.6737 -16.0695 -18.3698 -20.6977
-22.8400 -24.5018 -25.5426 -25.7723 -24.9749 -22.9466
-19.8002 -16.1458 -12.0643 -7.8431 -3.8553 -0.3185
2.7342 5.5701 7.9108 9.8767 11.6965 13.3289
14.5994 15.6035 16.1620 15.8341 14.8980 13.3317
11.5917 9.7618 7.8776 6.4253 5.0133 3.6473
2.2454 0.6304 -0.9423 -2.4673 -3.7635 -4.6013
-5.2333 -5.4630 -5.2095 -4.8843 -4.1135 -3.0782
-1.9483 -0.6006 0.8040 2.6505 4.6448 7.0388
9.8802 12.6811 15.6971 18.3474 20.8470 23.1886
25.0838 26.9238 28.4074 29.7312 30.6048 30.8942
30.8795 30.4532 29.5860 28.3477 27.0212 25.1967
22.9966 20.5024 17.4397 14.4311 11.0312 7.5017
4.4527 1.2099 -1.4900 -3.5230 -5.0378 -5.5008
-5.1903 -4.1440 -2.5988 -0.9021 0.9628 2.8524
4.5942 6.4140 8.1392 9.6890 10.9787 12.2152
13.4756 14.4843 15.5738 16.1920 16.7699 16.6771
15.8705 14.9307 13.0953 11.1771 8.7096 6.2320
3.6791 0.6071 -1.8383 -4.3113 -6.5601 -8.1806
-9.4273 -10.2053 -10.5168 -10.4056 -10.0198 -9.3014
-8.5463 -7.7746 -6.8891 -6.1303 -5.2346 -4.2572
-3.3449 -2.4686 -1.8209 -1.5802 -1.6271 -1.8512
-2.5384 -3.3992 -4.5603 -6.0348 -7.2777 -8.4857
-9.3787 -9.7434 -9.9390 -10.0162 -9.8738 -9.8940
-10.3240 -10.7842 -11.3327 -12.1842 -12.7841 -12.8631
-12.8797 -12.6675 -12.0768 -11.2831 -10.4067 -9.6084
-8.4757 -7.0876 -5.8052 -4.0653 -2.0094 -0.1519
1.9831 4.4689 6.8905 9.1696 11.4644 13.5194
14.9626 15.9887 16.3093 15.7756 14.8744 13.6673
12.2048 10.6146 9.1374 7.7135 5.8441 4.1060
2.3183 0.2008 -1.2617 -2.6231 -3.9451 -4.9087
-5.1816 -5.0144 -5.3139 -5.0107 -4.3493 -3.8955
-3.0577 -1.8001 -0.5378 1.1617 3.2525 5.0200
7.0548 8.9371 10.6182 12.2028 13.5110 15.0506
16.6518 18.2925 20.2777 22.5569 24.8030 26.8874
28.6714 30.6704 32.1108 32.6546 33.2003 33.2426
33.1773 32.7841 32.5086 32.1980 31.5504 31.4144
30.9092 30.9037 31.1030 31.1498 31.6725 32.1374
32.5939 32.6261 32.7382 32.5976 31.9794 31.3060
30.1016 28.5023 26.5345 24.6072 22.4566 19.9285
17.7219 15.5172 13.1516 11.0406 9.3227 7.7160
6.3160 5.0933 3.7860 2.2647 0.5000 -1.0810
-3.1222 -5.0661 -6.4386 -8.1426 -9.2717 -10.1977
-11.0741 -11.5784 -11.8999 -11.9394 -12.6826 -13.0234
-13.1741 -13.8796 -14.2012 -14.8378 -15.2944 -15.3991
-15.1832 -14.7450 -14.2150 -13.1337 -11.8100 -10.0627
-8.8657 -7.2838 -5.6532 -4.8182 -3.3208 -2.7494
-2.2092 -1.2897 -0.8101 0.0709 0.9573 2.0524
3.1584 4.3664 5.5414 6.8624 8.2054 9.2095
10.5195 11.7496 12.9778 14.0030 15.2018 16.5238
17.2477 18.1213 18.7184 19.2383 19.5332 19.4919
19.6526 19.1070 18.4951 17.7924 16.4438 14.9271
13.4472 11.7715 10.0472 8.7115 7.0965 5.7737
4.9469 3.7398 2.4812 1.5562 0.3040 -1.0106
-1.6977 -2.4473 -2.9315 -2.9884 -2.9250 -2.5511
-2.0064 -1.2357 -0.2940 0.7945 1.8243 2.5639
3.1683 3.3594 3.6056 3.9528 3.8784 4.3488
4.9312 5.3620 6.2513 6.8851 7.2213 7.3922
7.2213 6.7776 5.4584 3.4742 1.5569 -0.8481
-3.1539 -5.1115 -6.9286 -8.3599 -9.6846 -10.5270
-11.2591 -11.8654 -12.2393 -12.5085 -12.4901 -12.4359
-12.1236 -11.7075 -11.2123 -10.3111 -9.1316 -7.9364
-6.4519 -4.8737 -3.4773 -1.9680 -0.8491 0.1385
0.8844 1.2950 1.7984 1.9564 2.2265 2.6188
2.9385 3.2104 3.2673 3.4832 3.3812 2.8714
2.3845 1.5531 0.4443 -0.7545 -2.1187 -3.5886
-4.9537 -6.0643 -7.0748 -7.9687 -8.5768 -8.9967
-9.2962 -9.1271 -8.7395 -8.2213 -7.0813 -5.9330
-4.6892 -3.0035 -1.5024 0.1503 1.9848 3.8450
5.8642 7.6244 9.3762 11.0757 12.2653 13.4375
14.4003 14.8724 15.2353 15.1784 14.5537 13.4035
11.7803 9.9136 7.8080 5.5105 3.3664 1.1984
-0.9669 -2.8318 -4.7095 -6.2308 -7.3561 -8.1223
-8.3749 -8.2757 -7.7089 -6.7700 -5.3884 -3.5557
-1.3978 0.9677 3.7439 6.7745 9.7215 12.6612
15.3023 17.7936 19.8863 21.7126 23.3349 24.3417
25.4377 26.0614 26.1606 26.1726 25.5718 24.7128
23.4230 21.5536 19.4030 16.9392 14.1429 11.1876
8.3453 5.4139 2.7571 0.5496 -1.4154 -2.6041
-3.4989 -4.2467 -4.4469 -4.7124 -4.8465 -4.7216
-4.5443 -4.0170 -3.2104 -2.3662 -1.3327 -0.3415
0.4265 1.3561 2.0479 2.7414 3.4828 3.9338
4.1892 3.9742 3.6775 3.0161 2.2968 1.7382
0.8242 0.1710 -0.5446 -1.7095 -3.0204 -4.5453
-6.4295 -8.7436 -11.3654 -14.0974 -17.0408 -20.1201
-22.8852 -25.3766 -27.5722 -29.2230 -30.2611 -30.7580
-30.9188 -30.5220 -29.6594 -28.3604 -26.7895 -25.2591
-23.3795 -21.7829 -20.1303 -18.3582 -16.8654 -14.7801
-12.6543 -10.1942 -7.3896 -4.6217 -1.6232 1.1345
3.8390 6.3001 8.4176 10.1171 11.2966 12.1068
12.3438 12.1537 11.7568 11.4068 10.7564 10.1528
9.8754 9.2167 8.6876 7.8351 6.4470 4.8265
2.4656 -0.0175 -2.5962 -5.2097 -7.5734 -9.6698
-11.0872 -12.1804 -12.8262 -12.7574 -12.3228 -11.1249
-9.1177 -6.9148 -4.7330 -2.5503 -0.4484 1.3301
2.9643 4.5958 6.1006 7.5530 9.1036 10.6451
12.0415 13.4801 14.7000 15.7675 16.6815 17.3687
17.9033 17.8877 17.5570 16.7100 15.1740 13.1567
10.7277 8.1289 5.5310 3.2215 1.2960 -0.1913
-1.4434 -2.3207 -2.7764 -3.1080 -3.1135 -2.8572
-2.3593 -1.7319 -1.2092 -0.7269 -0.2593 0.4894
1.2298 1.8636 2.7097 3.6578 4.6793 5.4353
6.2318 6.9639 7.3985 7.9478 8.3006 8.3649
8.4154 8.5559 8.2555 7.4692 6.5909 5.4647
4.0105 2.4616 1.1406 -0.0592 -1.0201 -1.8616
-2.6314 -3.0512 -3.6603 -4.4274 -4.9106 -5.2597
-5.7410 -5.9220 -5.6235 -5.4223 -4.9427 -3.9552
-2.8179 -1.7817 -0.7225 0.2568 0.7611 0.7675
0.2476 -0.6867 -2.2080 -3.8349 -5.4655 -7.3717
-9.0400 -10.6063 -12.0302 -13.4421 -14.8376 -15.9216
-16.9312 -17.7965 -18.4589 -18.9788 -19.4676 -20.0013
-20.4165 -20.6830 -20.6637 -20.1501 -19.2784 -18.0308
-16.2726 -14.3765 -12.4942 -10.3583 -8.1646 -5.9203
-3.6338 -1.3978 0.8253 2.6469 4.1269 5.2146
5.9256 6.7294 7.5066 8.3480 9.4045 10.4600
11.3897 12.1751 12.5775 12.2201 11.3740 10.1127
8.2571 6.0541 3.6528 1.0990 -1.6248 -4.2816
-6.7151 -8.9299 -10.7654 -12.1323 -12.9702 -13.3652
-13.6693 -14.0505 -14.2103 -14.2756 -14.3004 -14.0533
-13.6390 -13.0125 -12.1094 -10.9317 -9.7164 -8.3797
-6.9384 -5.5953 -4.2523 -3.1343 -2.1486 -1.3347
-1.0131 -1.2143 -1.7940 -2.5307 -3.3823 -4.3304
-5.1608 -5.6101 -5.9582 -6.2439 -6.2072 -6.1264
-5.9628 -5.9518 -6.2238 -6.6335 -7.5236 -8.5250
-9.5943 -10.7959 -11.6199 -12.0048 -12.0958 -11.7917
-11.0173 -9.8616 -8.2531 -6.5490 -4.7723 -3.0462
-1.5892 -0.3555 0.3647 0.8791 1.1162 1.0427
0.8139 0.4143 -0.0340 -0.5889 -1.0785 -1.6775
-2.1864 -2.4620 -2.6421 -2.6265 -2.6632 -2.6724
-2.8378 -3.3008 -4.0210 -4.8478 -5.5202 -6.1569
-6.5216 -6.7025 -6.8054 -6.9579 -7.3649 -7.7030
-8.2716 -9.0901 -9.8021 -10.5664 -11.3032 -12.0032
-12.5571 -12.8704 -13.1258 -13.1469 -13.0670 -13.0964
-13.1451 -13.2406 -13.4694 -13.9728 -14.6305 -15.2800
-16.0287 -16.8748 -17.5271 -18.0544 -18.4549 -18.6533
-18.6983 -18.5661 -18.5973 -18.3713 -18.0489 -17.9827
-17.7237 -17.6686 -17.9102 -18.2354 -18.3851 -18.4164
-18.1885 -17.5574 -16.7398 -15.3803 -13.8039 -11.9115
-9.7784 -7.5102 -5.0822 -2.9418 -0.5846 1.5164
3.3518 5.1257 6.3540 7.5225 8.3263 8.8141
9.4746 10.0836 10.8048 11.7381 12.7110 13.4468
13.8253 13.8308 13.1161 11.6646 9.6601 7.1816
4.4743 1.7625 -0.8015 -2.7848 -4.1931 -5.2808
-5.6106 -5.6905 -5.5481 -4.6552 -3.5170 -2.0490
-0.4065 1.2609 2.9190 4.5386 6.1903 7.7235
9.5066 11.1694 12.8542 14.6979 16.2743 17.8589
19.2387 20.3136 20.8363 21.1210 21.0338 20.4614
19.8799 18.6214 17.2857 15.7065 13.6175 11.5588
9.1115 6.6633 4.2638 1.7954 -0.3735 -2.3045
-4.0353 -5.0779 -5.8321 -6.3962 -6.4026 -6.6102
-6.4706 -6.1077 -6.0793 -5.5556 -4.8896 -4.2098
-3.1626 -1.8489 -0.4085 1.2644 3.2633 5.3101
7.3338 9.0875 10.8091 12.0254 12.5609 12.8393
12.4856 11.9666 10.8752 9.6617 8.7586 7.3944
6.2755 5.1309 4.0009 3.0777 2.0359 1.3130
0.6286 -0.0797 -0.6998 -1.1591 -1.4559 -1.5753
-1.0893 -0.3122 0.4512 1.4627 2.4502 3.2375
3.9458 4.7330 5.6039 6.5042 7.8720 9.1756
10.3276 11.6128 12.5378 13.3315 13.9737 14.1868
13.8506 13.2893 12.6848 11.7055 10.7813 9.8884
8.8016 7.9684 7.1986 6.3626 5.7729 5.3705
4.9396 4.6328 4.4270 4.0421 3.5194 2.9608
2.5024 1.7776 0.9058 0.4814 0.0147 -0.4611
-0.3325 -0.1690 -0.0119 0.6945 1.1345 1.3578
1.7087 1.6297 1.4808 1.3173 0.9875 0.7771
0.7496 0.8433 0.9489 1.1749 1.2539 1.0922
0.8423 0.3150 -0.3418 -1.2650 -2.1800 -2.8451
-3.6104 -4.1515 -4.5474 -4.9975 -5.2740 -5.5193
-5.6535 -5.5469 -5.4716 -5.4100 -5.2410 -5.0591
-4.9296 -4.6053 -4.2158 -3.9457 -3.6637 -3.5902
-3.9393 -4.4832 -5.2842 -6.6025 -7.6112 -8.6667
-9.8306 -10.4130 -11.1939 -11.7846 -11.9261 -12.1217
-12.0841 -11.7093 -11.3088 -10.6326 -9.7213 -8.9368
-7.8363 -6.7596 -5.8254 -4.5880 -3.4571 -2.4439
-1.1513 0.2560 1.5302 2.9128 4.2411 5.2810
6.3457 7.1587 7.5859 7.9331 7.9396 7.6033
7.1605 6.4991 5.5116 4.5415 3.6651 2.8576
2.3735 1.9435 1.6762 1.6385 1.6936 1.7791
1.7699 1.6247 1.2867 0.8439 -0.0344 -1.0669
-1.9608 -3.0485 -3.9074 -4.4182 -5.0502 -5.3157
-5.1880 -5.3662 -5.5068 -5.6804 -6.1223 -6.5596
-7.0997 -7.6932 -8.1130 -8.5439 -8.9031 -8.8957
-8.7000 -8.4731 -8.2168 -7.8604 -7.6105 -7.4406
-7.3827 -7.4305 -7.5049 -7.8467 -8.2610 -8.8553
-9.3937 -9.9430 -10.5539 -10.9884 -11.5497 -12.2204
-12.9865 -13.5423 -14.2965 -14.8587 -14.9929 -15.3245
-15.2290 -14.9883 -14.7228 -14.2580 -13.5965 -12.7863
-12.0312 -10.9977 -9.8981 -8.7709 -7.4582 -6.0490
-4.6820 -3.2554 -1.9105 -0.6446 0.6764 1.7522
2.7700 3.6207 4.4401 5.3358 6.1975 7.1712
7.9907 8.6052 8.9102 8.6291 8.1266 7.0646
5.5241 4.4309 3.1650 1.7861 0.7682 -0.3277
-1.5808 -2.6905 -3.8893 -5.0974 -6.0822 -7.2268
-7.9094 -8.4973 -8.8886 -8.6039 -8.3770 -7.4703
-6.1327 -4.8494 -3.1793 -1.4991 0.0204 1.5444
2.7689 3.8621 4.9195 5.5947 6.4261 7.1224
7.7406 8.4847 9.0828 9.7460 10.1144 10.4203
10.6362 10.2899 10.0198 9.8103 9.2720 8.7364
8.1347 7.7654 7.3897 6.9882 7.2280 7.5247
7.8912 8.6078 9.2637 9.8801 10.5498 11.2507
11.9599 12.5359 13.2166 13.6897 14.0342 14.4825
14.4972 14.6322 14.3933 13.8872 13.4526 12.4440
11.5648 10.5093 9.2673 8.1860 7.1020 6.1880
5.3125 4.7135 4.1449 3.4145 2.8532 1.9557
0.7155 -0.5614 -2.0716 -3.4459 -4.5575 -5.4265
-5.9024 -6.0117 -5.8473 -5.6921 -5.5166 -5.2998
-5.2465 -5.2631 -5.2961 -5.3889 -5.4863 -5.6792
-5.8620 -6.2470 -6.8156 -7.2474 -7.6920 -7.8969
-8.1421 -8.0815 -7.6369 -7.4247 -7.0866 -6.9351
-6.7449 -6.4849 -6.2782 -5.9457 -5.6389 -4.9095
-4.1323 -3.2991 -2.0020 -0.8748 0.1311 1.4549
2.6243 3.6183 4.9439 6.2346 7.5345 9.0218
10.1894 11.2118 12.1929 12.6026 12.6513 12.7992
12.4290 11.7382 11.4332 10.7570 10.1535 9.8127
9.1522 8.7957 8.1756 7.3599 6.8969 6.3429
5.6218 4.9805 4.5791 4.0591 3.7560 3.6494
3.6457 3.9112 4.1087 4.4413 4.9658 5.5528
6.0902 6.8499 7.6152 8.1875 8.9242 9.4543
10.0542 10.7744 11.1841 11.6636 12.0449 12.0926
12.1918 12.2690 12.2185 12.2065 12.3710 12.5097
12.5207 12.5244 12.1606 11.6682 11.0196 10.0082
9.2062 8.4345 7.6316 7.1117 6.6606 6.2628
6.0570 6.0194 6.1489 6.4052 6.7203 6.9573
7.4809 7.8594 7.9117 8.5557 8.9278 9.0040
9.2603 9.2419 9.0003 8.5015 8.1496 7.4212
6.3537 5.6013 4.2628 2.9244 1.9745 0.5561
-0.5013 -1.1866 -2.0097 -2.4580 -2.6858 -2.8025
-2.7061 -2.5076 -2.2027 -1.7883 -1.5100 -1.2013
-0.6805 -0.3038 0.1224 0.4642 1.0163 1.5096
1.5096 2.0791 2.2729 2.3474 2.6790 2.3676
2.3170 2.0405 1.5022 1.0236 0.4035 -0.2525
-0.9837 -1.5643 -2.2716 -2.8440 -3.2987 -3.7048
-4.1558 -4.7272 -5.1287 -5.7295 -6.2917 -6.9531
-7.6825 -8.2420 -9.0293 -9.5924 -9.8698 -10.1583
-10.0664 -9.5097 -8.8456 -7.9141 -6.8769 -5.8489
-4.8127 -4.1118 -3.4219 -2.9249 -2.5602 -2.2791
-1.9842 -1.4762 -1.2750 -0.7422 -0.3224 -0.0661
0.7037 1.1741 1.7794 2.6227 3.2070 3.7315
4.2377 4.6107 4.7154 4.8752 4.8872 4.7384
4.6777 4.3525 4.2570 4.1284 3.7333 3.7434
3.5073 3.0958 2.9451 2.7788 2.5630 2.4077
2.3884 2.3434 2.2846 1.9539 1.3972 0.6319
-0.5210 -1.9219 -3.4487 -4.9479 -6.5023 -7.8242
-9.0111 -10.0437 -10.8089 -11.5659 -12.1107 -12.7905
-13.4951 -14.0582 -14.6544 -15.0908 -15.4711 -15.6603
-15.7173 -15.6236 -15.4031 -15.1569 -14.5378 -13.7542
-12.8162 -11.6661 -10.5463 -9.4347 -8.4022 -7.6259
-7.2318 -6.8965 -6.7780 -6.8322 -6.5024 -6.2746
-5.9264 -5.2448 -4.6606 -3.8393 -2.8729 -1.8118
-0.6194 0.3635 1.1995 2.0106 2.5710 2.8714
3.1011 3.1157 3.0055 2.7823 2.4855 2.1659
1.5954 1.0956 0.4516 -0.4146 -1.2111 -2.3659
-3.5665 -4.7433 -6.1645 -7.5544 -9.0022 -10.4160
-11.5937 -12.4462 -12.9799 -13.1086 -12.7154 -12.0898
-11.0545 -9.6499 -8.2131 -6.4631 -4.7020 -2.9796
-1.1414 0.4396 1.9646 3.3728 4.5028 5.3479
6.0213 6.5624 6.7250 6.7544 6.6331 6.1600
5.5803 4.9226 3.9258 2.7839 1.5428 0.1364
-1.3013 -2.8860 -4.3512 -5.5602 -6.6157 -7.4204
-7.8513 -8.0543 -8.1113 -7.7870 -7.4204 -6.9134
-6.1068 -5.1514 -3.7936 -2.2788 -0.6684 0.9594
2.5064 4.0654 5.5085 6.9315 8.1974 9.2906
10.2074 10.8302 11.2096 11.1591 10.8514 10.4637
9.7572 8.9387 8.3388 7.6315 7.0224 6.7569
6.3215 6.0174 5.7317 5.2117 4.7965 4.3620
4.0184 3.8742 3.9569 4.2196 4.7065 5.3642
6.0596 7.0003 7.8418 8.5969 9.4549 10.0419
10.1852 10.0327 9.5119 8.3920 7.1546 5.7867
4.2287 2.9885 1.8081 0.7553 -0.0779 -1.0535
-2.0071 -3.0387 -4.2605 -5.4382 -6.5599 -7.7073
-8.7289 -9.4996 -10.1620 -10.5900 -10.8105 -10.7444
-10.3971 -9.9185 -9.1551 -8.2457 -7.2214 -6.2954
-5.4209 -4.6850 -4.4159 -4.1880 -3.9859 -3.9639
-3.8766 -3.6681 -3.4991 -3.2887 -3.0572 -2.9525
-2.8055 -2.7045 -2.7137 -2.7229 -2.9084 -3.2024
-3.6948 -4.3351 -4.8477 -5.5257 -6.1871 -6.8743
-7.6202 -8.2238 -8.7777 -8.9532 -8.9614 -8.8117
-8.3744 -7.9169 -7.6074 -7.4916 -7.5137 -7.9041
-8.4544 -9.0993 -9.8599 -10.5994 -11.2425 -11.5365
-11.6366 -11.4685 -10.9090 -10.0235 -8.9532 -7.8003
-6.5583 -5.4771 -4.4060 -3.4561 -2.5742 -1.6785
-1.0740 -0.3924 0.1873 0.6062 1.0949 1.5606
2.1504 2.7668 3.4291 4.0768 4.5921 5.0294
5.1791 4.8705 4.3018 3.7718 3.1517 2.4544
1.8499 1.3144 0.9588 0.7825 0.6548 0.5574
0.5078 0.3498 0.1532 -0.1886 -0.7223 -1.3011
-2.0608 -2.7489 -3.3763 -3.8862 -4.0570 -3.9597
-3.4223 -2.5146 -1.4270 0.0135 1.7056 3.4593
5.2874 6.8914 8.4246 9.6978 10.5209 11.2228
11.6839 12.0753 12.3242 12.5291 12.5676 12.3793
12.1267 11.4882 10.7744 9.8365 8.6422 7.3920
6.0223 4.6627 3.2075 1.8856 0.6537 -0.7656
-2.0242 -3.1615 -4.2446 -4.9244 -5.4260 -5.7006
-5.7879 -5.8908 -5.9818 -6.0635 -6.1416 -6.3474
-6.3272 -6.2629 -6.0718 -5.6676 -5.2754 -4.6415
-3.9599 -3.0862 -2.1161 -1.0386 0.1088 1.1634
2.3622 3.2717 3.9276 4.3777 4.5119 4.3594
3.8964 3.3893 2.7839 2.3282 2.0673 1.9966
2.1812 2.3163 2.5670 2.7609 2.9244 3.0980
3.0741 3.0998 2.9951 2.8895 2.8885 3.0328
3.3442 3.7456 4.4456 5.1447 5.8227 6.4216
6.9811 7.4294 7.7197 8.2075 8.4950 8.8037
9.1702 9.5579 10.1090 10.5289 11.0534 11.3409
11.3887 11.2555 10.7870 10.1595 9.2620 8.3323
7.2263 6.0063 4.8727 3.5361 2.1847 0.9684
-0.2405 -1.3649 -2.3865 -3.2197 -3.7911 -4.2835
-4.5279 -4.6014 -4.5986 -4.4847 -4.3625 -4.1071
-3.8812 -3.5569 -3.0819 -2.5941 -2.0916 -1.6516
-1.2741 -1.0095 -0.8203 -0.6944 -0.6007 -0.5952
-0.6053 -0.6494 -0.8010 -0.9287 -1.0123 -1.0362
-1.1317 -1.2172 -1.3742 -1.6122 -1.8290 -2.1579
-2.4224 -2.7440 -3.0627 -3.3641 -3.7811 -4.1890
-4.6585 -5.0985 -5.4825 -5.7939 -5.9446 -5.8876
-5.7315 -5.4476 -4.9773 -4.4022 -3.5635 -2.6090
-1.4892 -0.2518 0.8396 1.9181 2.8468 3.6773
4.4581 5.1195 5.7240 6.2256 6.6785 7.0055
7.3325 7.7322 8.0978 8.4808 8.8060 9.1092
9.3535 9.5364 9.7173 9.8257 9.9066 9.9350
9.8689 9.7449 9.6043 9.5170 9.4876 9.5501
9.6456 9.7347 9.9175 10.0269 10.0388 10.0020
9.8909 9.8137 9.7264 9.6676 9.7595 9.9625
10.2372 10.5716 10.8499 11.0934 11.3331 11.5536
11.7630 11.8622 11.8760 11.7759 11.5563 11.2872
10.8976 10.3244 9.5968 8.7379 7.7724 6.8446
5.9507 5.1478 4.5773 4.1704 3.9159 3.8176
3.7854 3.7735 3.7716 3.7873 3.8130 3.7799
3.7551 3.7781 3.7477 3.6853 3.5447 3.2792
2.9761 2.6683 2.2558 1.8470 1.6348 1.4208
1.2260 1.1075 0.9173 0.7143 0.3487 -0.2108
-0.7960 -1.4776 -2.2061 -2.7885 -3.1459 -3.3333
-3.3535 -3.2276 -3.0448 -2.7591 -2.3007 -1.8267
-1.3922 -0.8906 -0.5461 -0.3661 -0.3404 -0.5930
-0.8989 -1.1773 -1.4244 -1.6375 -1.6945 -1.5190
-1.3022 -0.9954 -0.6298 -0.3845 -0.1732 0.0748
0.2548 0.3669 0.4781 0.4790 0.3807 0.1400
-0.2514 -0.6317 -1.0092 -1.3005 -1.5347 -1.7846
-2.0464 -2.4433 -3.0229 -3.7165 -4.4974 -5.3747
-6.2116 -7.0788 -7.9699 -8.8279 -9.7070 -10.4401
-11.1172 -11.6923 -12.0652 -12.2774 -12.3280 -12.3004
-12.2086 -12.2205 -12.2765 -12.3987 -12.6964 -13.0069
-13.2926 -13.4478 -13.5195 -13.4717 -13.3385 -13.2127
-13.0042 -12.8360 -12.6358 -12.4741 -12.3896 -12.2987
-12.2784 -12.3887 -12.7093 -12.9959 -13.2927 -13.6445
-13.8815 -14.0662 -14.2324 -14.3647 -14.3399 -14.3528
-14.3693 -14.1829 -14.0056 -13.8696 -13.7732 -13.7631
-13.8696 -14.0469 -14.1572 -14.2206 -14.0864 -13.7521
-13.2431 -12.3704 -11.3590 -10.3641 -9.3352 -8.4267
-7.6238 -6.8494 -6.3698 -6.1815 -6.1604 -6.5168
-7.0754 -7.7469 -8.6233 -9.4299 -10.1124 -10.7013
-11.1395 -11.4868 -11.7431 -11.8855 -11.9057 -11.8836
-11.7918 -11.5382 -11.1313 -10.5617 -9.8626 -9.0965
-8.2311 -7.3125 -6.3066 -5.1334 -4.0044 -2.8672
-1.7749 -0.9187 -0.2628 0.0367 -0.0221 -0.2647
-0.6294 -1.2136 -1.6684 -1.9697 -2.4419 -2.6982
-2.9370 -3.1612 -3.1373 -3.3633 -3.6628 -3.7087
-3.7602 -3.8833 -3.8346 -3.6619 -3.4047 -2.9251
-2.2977 -1.6087 -0.8876 -0.0994 0.6199 1.2051
1.6368 1.8784 2.0052 1.9354 1.7783 1.4301
0.8247 0.1449 -0.6460 -1.4361 -2.1673 -2.8196
-3.2862 -3.6023 -3.7777 -3.7502 -3.6739 -3.5554
-3.4195 -3.3717 -3.1907 -2.9583 -2.6726 -2.3695
-2.0066 -1.5308 -1.1137 -0.6002 -0.0885 0.4930
1.1572 1.6762 2.1328 2.5241 2.7143 2.7712
2.8135 2.8282 2.7923 2.7170 2.6858 2.6114
2.3789 2.0308 1.8084 1.4979 0.8916 0.4387
-0.0252 -0.6131 -1.1083 -1.6200 -2.0177 -2.2649
-2.3430 -2.2061 -2.0518 -1.7798 -1.2287 -0.4322
0.3817 1.1837 2.2264 3.5400 5.0843 6.6349
8.1286 9.6141 10.9719 12.1247 12.9598 13.5266
13.9547 14.3001 14.5334 14.6152 14.4728 14.0860
13.5477 12.6805 11.4844 10.0816 8.4896 6.9307
5.3616 3.6759 2.0848 0.7252 -0.5701 -1.8305
-2.9439 -3.9710 -4.7582 -5.2552 -5.5235 -5.6328
-5.5216 -5.0871 -4.5167 -3.7413 -2.7703 -1.6468
-0.5353 0.3797 1.3066 2.1481 2.9243 3.6749
4.3354 4.9573 5.4552 5.7657 5.8833 5.9889
6.0891 6.1037 5.8548 5.3569 4.8829 4.3454
3.8751 3.3588 2.6340 1.9634 1.4223 0.9556
0.5790 0.3539 0.0948 -0.0457 0.0213 0.0029
-0.0265 -0.0788 -0.1450 -0.2341 -0.4307 -0.6245
-0.7788 -0.7136 -0.4068 -0.0642 0.4503 1.1466
1.9192 2.5218 2.8038 3.0840 3.1667 3.0032
2.7643 2.3078 1.7446 1.1769 0.7424 0.3841
0.1811 0.2490 0.1765 0.1517 0.3133 0.0818
-0.3729 -0.7257 -1.2631 -2.0357 -2.8000 -3.3530
-3.7940 -4.2092 -4.4389 -4.5656 -4.5895 -4.3865
-4.2147 -4.1367 -3.9557 -3.6865 -3.3549 -3.0251
-2.7018 -2.2746 -1.7849 -1.3045 -0.8323 -0.4603
-0.1580 0.1727 0.3527 0.2967 0.1791 0.0955
0.0358 0.0578 0.1561 0.2792 0.4831 0.6806
0.6586 0.7569 0.8717 0.4996 0.3683 0.3370
-0.0580 -0.4163 -0.7341 -0.9316 -1.3625 -1.7805
-1.7750 -1.7998 -1.7548 -1.6399 -1.5426 -1.2982
-0.9868 -0.6882 -0.3750 0.0733 0.7595 1.6442
2.7484 4.0005 5.3197 6.8107 8.2153 9.3737
10.3079 11.0254 11.6271 11.9514 12.0736 12.1351
12.0625 11.9027 11.5977 11.1172 10.5366 9.8862
9.1513 8.3631 7.5657 6.7509 5.9948 5.1864
4.4349 3.7230 2.9660 2.4176 1.7617 1.1939
1.0166 0.7603 0.4186 0.2643 0.1614 -0.1170
-0.3577 -0.4321 -0.5047 -0.6149 -0.6057 -0.4762
-0.2539 0.0860 0.4608 1.0157 1.6936 2.3743
2.9917 3.4583 3.9094 4.2456 4.3714 4.4339
4.4311 4.3310 4.2189 4.0481 3.8028 3.5575
3.3389 3.1790 2.9861 2.7785 2.5203 2.1584
1.8019 1.3757 0.9127 0.4827 0.0932 -0.1961
-0.5030 -0.7850 -0.9577 -1.0652 -1.1571 -1.3123
-1.4419 -1.5567 -1.6706 -1.7707 -1.7836 -1.6816
-1.6660 -1.4557 -1.2517 -1.3170 -1.2168 -1.1792
-1.2664 -1.2031 -0.9697 -0.5545 -0.0539 0.6875
1.7099 2.8840 4.2821 5.8411 7.5084 9.2346
10.8799 12.4618 13.9086 15.1396 16.1850 17.0495
17.7375 18.2850 18.6892 18.8555 18.9180 18.8913
18.6956 18.3273 17.7485 17.0375 16.1629 15.1763
14.0555 12.7887 11.5127 10.2211 8.9506 7.7747
6.7762 6.0183 5.5865 5.4910 5.7179 6.3159
7.1372 8.0834 9.1040 10.0805 10.9991 11.7708
12.4616 13.0725 13.6917 14.3310 14.7352 15.2368
15.6052 15.6217 15.8119 16.0866 16.0939 15.8541
15.4701 14.8693 13.9847 12.7812 11.3895 9.8645
8.1880 6.4931 4.8110 3.1712 1.6233 0.1939
-1.1593 -2.3645 -3.4173 -4.3948 -5.2197 -5.9206
-6.5132 -6.9918 -7.3262 -7.4704 -7.4474 -7.3051
-6.9385 -6.3754 -5.7489 -5.0085 -4.2910 -3.4872
-2.6797 -2.0284 -1.4092 -0.9747 -0.6495 -0.5246
-0.6348 -0.8783 -1.3064 -1.7886 -2.3307 -2.8084
-3.2410 -3.6774 -3.9888 -4.3003 -4.6907 -5.1904
-5.7848 -6.4692 -7.2932 -8.1678 -9.0625 -10.0483
-10.9651 -11.7606 -12.6664 -13.3765 -13.7578 -14.1482
-14.3806 -14.3779 -14.2199 -13.8552 -13.2948 -12.4579
-11.5237 -10.5527 -9.3575 -8.1614 -7.0251 -5.8483
-4.6844 -3.5609 -2.5660 -1.6372 -0.8426 -0.2547
0.2258 0.5363 0.6465 0.6226 0.5703 0.4095
0.1146 -0.2134 -0.6222 -1.0888 -1.5592 -2.1205
-2.8012 -3.4948 -4.2913 -5.1869 -6.0468 -6.8819
-7.5681 -8.0449 -8.3085 -8.3682 -8.2654 -8.0274
-7.7041 -7.2209 -6.6476 -6.0377 -5.3092 -4.5660
-3.8834 -3.2836 -2.7792 -2.3383 -1.9819 -1.6613
-1.4812 -1.4325 -1.2571 -1.2837 -1.5235 -1.5667
-1.7770 -2.3089 -2.7995 -3.2947 -3.9267 -4.6414
-5.3681 -6.0148 -6.7313 -7.5379 -8.2122 -8.8626
-9.6086 -10.3683 -11.1776 -12.0430 -12.8652 -13.6322
-14.2872 -14.6988 -14.8991 -14.8467 -14.5004 -14.0310
-13.3521 -12.5189 -11.6085 -10.5337 -9.4690 -8.3528
-7.1981 -6.1343 -5.1532 -4.2998 -3.6374 -3.2461
-3.0045 -2.8722 -2.9090 -3.0413 -3.2388 -3.5144
-3.8543 -4.2539 -4.6204 -4.8372 -5.0660 -5.2506
-5.2957 -5.3278 -5.3839 -5.5474 -5.7385 -5.9911
-6.2979 -6.6764 -7.1449 -7.4279 -7.6098 -7.6631
-7.4132 -6.9171 -6.2281 -5.3325 -4.2696 -3.1415
-2.0952 -1.2179 -0.3194 0.4871 1.1430 1.7549
2.3814 3.0419 3.5747 4.1415 4.6486 5.1024
5.5176 5.7859 6.0192 6.0890 6.1900 6.1331
6.0651 6.0311 5.7087 5.4799 5.1290 4.6366
4.1267 3.6288 3.1621 2.6284 2.2775 1.9973
1.7529 1.7832 1.9008 2.1011 2.6238 3.0482
3.5525 4.2222 4.6292 4.9222 5.0334 4.9920
4.6971 4.1515 3.4312 2.5346 1.6665 0.8122
0.0001 -0.6301 -1.0564 -1.5084 -1.8290 -2.1303
-2.4481 -2.5621 -2.7293 -2.5933 -2.3287 -2.0210
-1.4386 -0.8947 -0.2719 0.3463 1.0776 1.8410
2.5364 3.4771 4.4205 5.3144 6.2468 7.1351
7.7984 8.2880 8.6720 8.7804 8.7418 8.4607
7.8838 7.1066 6.0685 4.7842 3.4366 2.0632
0.7110 -0.4006 -1.3248 -2.0533 -2.4382 -2.5475
-2.4860 -2.2030 -1.8934 -1.5021 -1.0749 -0.7139
-0.4282 -0.3722 -0.3024 -0.4347 -0.5688 -0.6524
-0.7893 -0.7645 -0.7966 -0.7737 -0.8012 -0.7746
-0.8040 -0.8995 -0.9969 -1.2753 -1.4232 -1.6593
-1.9128 -2.0929 -2.2867 -2.3859 -2.5164 -2.5945
-2.6358 -2.6340 -2.6597 -2.5991 -2.5669 -2.6836
-2.7130 -2.8903 -3.0088 -3.1723 -3.2991 -3.2504
-3.2955 -2.9234 -2.5220 -2.0838 -1.3332 -0.6672
0.0107 0.6225 1.1967 1.6523 1.9849 2.2467
2.4148 2.5158 2.4653 2.4479 2.3569 2.2274
2.2531 2.1153 1.7892 1.5714 1.1939 0.5940
0.1778 -0.3329 -0.7950 -0.9971 -1.3260 -1.4721
-1.5107 -1.5382 -1.3646 -1.1212 -0.7684 -0.3807
0.1576 0.6665 1.0376 1.4336 1.7037 1.8442
1.8580 1.7652 1.6072 1.4188 1.2287 1.1157
1.0900 1.0909 1.1377 1.0734 0.8787 0.5994
0.0831 -0.5195 -1.1690 -2.0160 -2.8345 -3.6558
-4.5304 -5.3305 -6.1435 -6.8077 -7.3920 -8.0038
-8.3180 -8.6441 -8.9555 -8.9813 -9.1466 -9.2008
-9.1402 -9.1099 -9.0244 -8.8214 -8.4485 -8.1389
-7.5170 -6.8234 -6.1464 -5.2801 -4.5259 -3.6623
-2.9247 -2.2780 -1.6505 -1.2087 -0.8697 -0.7484
-0.6253 -0.7374 -1.1186 -1.4668 -2.0511 -2.8200
-3.6376 -4.5259 -5.4473 -6.3972 -7.2856 -8.0554
-8.7315 -9.2506 -9.6979 -9.9965 -10.1674 -10.3392
-10.2804 -10.2427 -10.1554 -9.9837 -9.7329 -9.2451
-8.7619 -8.0784 -7.3178 -6.4598 -5.5907 -4.8347
-4.0474 -3.4365 -2.9340 -2.6061 -2.4177 -2.4719
-2.6933 -3.0029 -3.4283 -3.7489 -4.0768 -4.2541
-4.3488 -4.4342 -4.4158 -4.3855 -4.3194 -4.2827
-4.1981 -4.1063 -4.0153 -3.8849 -3.7361 -3.4366
-3.1353 -2.7449 -2.2304 -1.6866 -1.0582 -0.4575
0.2352 0.8397 1.4065 1.9705 2.3343 2.7054
2.8864 2.9406 3.0582 3.0591 3.0958 3.3264
3.5055 3.7352 4.1403 4.4811 4.9404 5.4273
5.8067 6.2569 6.6188 6.8530 7.1029 7.3408
7.5411 7.7496 7.9425 8.0932 8.2788 8.4037
8.5277 8.7610 8.8511 9.0375 9.1882 9.1487
9.1514 9.0164 8.8014 8.4624 8.0895 7.6439
7.2103 6.8300 6.3495 6.0069 5.7221 5.5990
5.5264 5.5567 5.7193 5.7836 5.9756 6.2053
6.4919 6.7078 6.9843 7.3774 7.6053 7.9038
8.1335 8.3347 8.5368 8.7058 8.9024 8.9336
8.9602 8.8270 8.5018 8.1279 7.4527 6.7646
6.1519 5.3463 4.5213 3.7643 3.0662 2.3248
1.5789 0.9248 0.2312 -0.3751 -0.9079 -1.4481
-1.9359 -2.2639 -2.4880 -2.7434 -2.7609 -2.7058
-2.6378 -2.2428 -1.7237 -1.2157 -0.5323 0.2927
1.0552 1.8948 2.7978 3.6577 4.5093 5.3737
6.2161 6.9051 7.5316 7.9771 8.2656 8.4475
8.3730 8.0662 7.5885 7.0281 6.1876 5.3259
4.5386 3.5042 2.5662 1.7073 0.6702 -0.3541
-1.2609 -2.2420 -3.2562 -4.1371 -4.9437 -5.6226
-6.1269 -6.3961 -6.5119 -6.4145 -5.9892 -5.4940
-4.7214 -3.6632 -2.6122 -1.4437 -0.2164 0.9723
2.1151 3.2524 4.3832 5.4590 6.5439 7.5222
8.2939 8.9296 9.4156 9.6324 9.6323 9.4302
8.9397 8.3288 7.5148 6.4961 5.4607 4.3914
3.3791 2.3796 1.5170 0.8638 0.3227 -0.0282
-0.2275 -0.3185 -0.3341 -0.1770 0.0581 0.2860
0.6571 0.9951 1.2753 1.6327 1.8936 2.0699
2.3428 2.6028 2.8692 3.2440 3.6564 4.1194
4.5861 5.0270 5.4533 5.7041 5.8207 5.8262
5.6499 5.3118 4.8166 4.3132 3.8116 3.2862
2.7818 2.2968 1.8861 1.5159 1.1429 0.7828
0.3648 -0.0881 -0.5005 -0.9443 -1.3328 -1.6617
-1.9153 -1.9713 -1.9493 -1.7481 -1.4201 -0.9764
-0.3628 0.1967 0.8250 1.3780 1.8043 2.1901
2.4786 2.7918 3.0803 3.4211 3.7738 4.1404
4.5492 4.8624 5.1720 5.3622 5.4577 5.4485
5.2198 4.9157 4.4600 3.9033 3.3503 2.7936
2.3159 1.9319 1.6692 1.5121 1.4349 1.4661
1.5341 1.6673 1.8694 2.0494 2.4307 2.7889
2.9975 3.5680 4.1035 4.3911 4.7723 5.0800
5.2399 5.3703 5.6036 5.7038 5.5127 5.1847
4.7502 4.1200 3.3171 2.5013 1.5956 0.7633
-0.0011 -0.7599 -1.4323 -2.1553 -2.8048 -3.4607
-4.1497 -4.7845 -5.4027 -5.9356 -6.3958 -6.7596
-7.0729 -7.3512 -7.5561 -7.7517 -7.9327 -8.0338
-8.0687 -8.0329 -7.8896 -7.6516 -7.2851 -6.8267
-6.2893 -5.6518 -4.9995 -4.4557 -3.8476 -3.2247
-2.8380 -2.4714 -2.1738 -1.8872 -1.7071 -1.6998
-1.4802 -1.4297 -1.5234 -1.5436 -1.7246 -1.8955
-2.1178 -2.3162 -2.4136 -2.5239 -2.4825 -2.4127
-2.3493 -2.2915 -2.3209 -2.3273 -2.3686 -2.4302
-2.4366 -2.4017 -2.3604 -2.2887 -2.1491 -1.9571
-1.6953 -1.4666 -1.3021 -1.1891 -1.1662 -1.2204
-1.4069 -1.7367 -2.1785 -2.6792 -3.2276 -3.7586
-4.1794 -4.4559 -4.5138 -4.4844 -4.3062 -4.0067
-3.6953 -3.3269 -3.0164 -2.7775 -2.5957 -2.1253
-2.2236 -2.4799 -1.2453 -0.7667 -1.2921 -0.4874
0.6710 0.9181 1.0008 1.7173 2.1032 1.6723
1.4371 1.3535 0.8014 -0.0584 -0.8852 -1.7359
-2.8548 -4.0334 -5.0302 -6.0278 -6.9612 -7.7338
-8.3437 -8.8104 -9.2449 -9.5141 -9.6785 -9.8292
-9.9146 -9.9918 -10.0120 -9.9946 -10.0157 -10.0065
-9.9413 -9.8485 -9.6290 -9.3084 -8.8399 -8.1775
-7.4362 -6.6223 -5.8120 -5.0624 -4.3541 -3.7625
-3.3179 -2.9936 -2.6142 -2.3258 -2.4278 -1.9051
-1.1545 -1.3585 -1.0847 -0.2295 0.0379 0.0746
0.4871 0.9106 0.8224 0.8986 1.1815 1.0731
0.9069 0.8141 0.5605 0.3235 0.1609 0.0442
0.0736 0.1085 0.2004 0.3850 0.4695 0.4787
0.4025 0.2197 -0.0036 -0.3122 -0.6347 -0.9213
-1.2217 -1.4275 -1.5956 -1.7435 -1.8225 -1.9475
-2.0595 -2.1468 -2.2819 -2.4968 -2.7743 -3.0692
-3.4679 -3.9345 -4.4765 -5.0369 -5.6046 -6.2698
-6.8467 -7.3547 -7.7433 -8.4727 -8.9403 -8.7088
-9.4630 -10.1309 -10.0904 -10.6168 -11.2461 -11.7376
-12.0417 -12.6342 -13.2965 -13.6052 -14.1766 -14.6975
-15.0420 -15.3332 -15.5537 -15.6465 -15.4921 -15.3176
-15.0383 -14.5616 -14.0306 -13.4326 -12.7583 -12.0711
-11.2995 -10.4258 -9.5219 -8.6014 -7.6589 -6.6888
-5.7766 -4.9406 -4.1497 -3.4726 -2.9564 -2.5852
-2.3124 -2.2205 -2.3152 -2.5053 -2.7616 -3.0538
-3.3781 -3.6913 -3.9724 -4.2067 -4.4198 -4.6835
-5.0105 -5.0822 -5.1051 -5.3523 -5.1667 -4.8636
-4.6780 -4.1709 -3.6050 -2.9702 -2.2261 -1.5243
-0.7278 0.2707 1.2684 2.2146 3.2866 4.3945
5.4528 6.4073 7.1780 7.7641 8.2684 8.6285
8.7691 8.8095 8.7176 8.5826 8.4448 8.2436
7.9790 7.6942 7.3819 7.0089 6.5799 6.0205
5.4518 4.8556 4.2631 3.7642 3.2562 2.7997
2.3863 2.0206 1.6715 1.3326 1.2306 1.2609
1.3160 1.6605 2.0665 2.5020 3.0045 3.3930
4.2180 5.1440 5.6584 6.2418 6.7608 7.2532
8.0616 8.6725 8.7671 8.9453 9.4129 9.5929
9.6104 9.7546 9.7023 9.6223 9.5626 9.2411
8.7983 8.3233 7.8227 7.3588 6.8223 6.3161
5.9413 5.6335 5.4939 5.4084 5.3873 5.5416
5.8209 6.1185 6.4373 6.8048 7.0886 7.4065
7.6242 7.7528 7.9861 8.2139 8.4601 8.8708
9.5956 10.0319 10.3718 11.3125 11.9491 12.0851
12.3129 12.5269 12.6041 12.5949 12.6151 12.4865
12.3533 12.3891 12.3101 12.2192 12.0979 11.9289
11.7892 11.5164 11.1480 10.6933 10.1237 9.5027
8.8137 8.0806 7.4045 6.7550 6.1129 5.5323
4.9719 4.4529 4.0193 3.6775 3.3845 3.1135
2.9628 2.8948 2.8792 2.9995 3.1888 3.4396
3.6508 4.0091 4.4170 4.4785 4.6751 4.7780
4.6577 4.7247 4.5401 4.1175 3.7987 3.4965
3.1713 2.8846 2.5328 2.1515 1.8759 1.5526
1.0629 0.5558 0.0671 -0.4455 -0.9452 -1.4955
-2.0017 -2.4316 -2.8018 -3.1050 -3.3705 -3.5450
-3.6167 -3.5597 -3.4330 -3.2943 -3.1556 -3.0683
-2.9930 -2.9535 -3.0361 -3.1326 -3.2236 -3.3540
-3.4413 -3.5019 -3.5672 -3.5984 -3.6158 -3.6838
-3.7895 -3.9319 -4.1046 -4.2764 -4.4610 -4.6686
-4.8496 -4.9544 -4.9801 -4.8937 -4.6521 -4.2424
-3.7436 -3.1263 -2.4557 -1.8402 -1.2109 -0.6248
-0.0718 0.4316 0.7844 0.9938 1.0921 1.1362
1.1114 0.9617 0.7880 0.7182 0.7090 0.6796
0.6475 0.6980 0.8367 1.0526 1.2905 1.4375
1.5514 1.6671 1.7434 1.7764 1.8361 2.0180
2.2835 2.6547 3.0800 3.4869 3.9701 4.4699
4.9788 5.4253 5.7688 6.0444 6.1225 6.0463
5.7615 5.3040 4.7950 4.2595 3.7616 3.2453
2.7373 2.2054 1.6661 1.1608 0.6372 0.1053
-0.4670 -1.0733 -1.7320 -2.3218 -2.7728 -3.1688
-3.4536 -3.6226 -3.6786 -3.6474 -3.5748 -3.4912
-3.4582 -3.3479 -3.1642 -2.9410 -2.6103 -2.1996
-1.7569 -1.2893 -0.7656 -0.3486 -0.0271 0.2320
0.3532 0.4028 0.3358 0.1851 -0.0749 -0.4726
-0.9595 -1.5769 -2.2502 -2.9245 -3.5676 -4.1151
-4.6543 -5.1311 -5.4554 -5.6933 -5.8449 -5.9561
-6.0470 -6.0700 -6.0572 -5.9515 -5.6585 -5.2745
-4.8372 -4.2493 -3.5419 -2.8024 -2.0252 -1.2214
-0.5058 0.1299 0.6939 1.0926 1.3204 1.3691
1.2589 1.0191 0.6581 0.2557 -0.1283 -0.4765
-0.7429 -0.9082 -1.0194 -1.0662 -1.0865 -1.1590
-1.2638 -1.3657 -1.4787 -1.6101 -1.7148 -1.8471
-2.0116 -2.1494 -2.3037 -2.4415 -2.5352 -2.6335
-2.6638 -2.5867 -2.4599 -2.2229 -1.8904 -1.4705
-1.0066 -0.5932 -0.1679 0.1950 0.4641 0.6552
0.7213 0.7241 0.7195 0.7103 0.7020 0.7544
0.8325 0.9335 1.1071 1.2918 1.4911 1.6271
1.6519 1.6215 1.4773 1.2522 0.9803 0.6478
0.2693 -0.1285 -0.5208 -0.9378 -1.3521 -1.8308
-2.3314 -2.8073 -3.3383 -3.8123 -4.2652 -4.7420
-5.2197 -5.6763 -6.0263 -6.3065 -6.5031 -6.6050
-6.6464 -6.6500 -6.5444 -6.3396 -6.1806 -6.0190
-5.8674 -5.6928 -5.4071 -5.0902 -4.7889 -4.4343
-4.0200 -3.6149 -3.1657 -2.6972 -2.2424 -1.7399
-1.2329 -0.7625 -0.3565 -0.0662 0.0780 0.0358
-0.1829 -0.5246 -1.0005 -1.5902 -2.2342 -2.9131
-3.5837 -4.2690 -4.9323 -5.5368 -6.1431 -6.6713
-7.1159 -7.4733 -7.7076 -7.8628 -7.8546 -7.6773
-7.3750 -6.9277 -6.3480 -5.7059 -5.0123 -4.2158
-3.3918 -2.5411 -1.6666 -0.8067 0.0292 0.7761
1.4660 2.0594 2.5371 2.9000 3.1673 3.4346
3.6349 3.7837 3.9316 4.0170 4.0133 3.8820
3.6459 3.2665 2.7190 2.1145 1.4246 0.7264
0.0696 -0.5763 -1.1311 -1.6373 -2.0011 -2.2409
-2.3961 -2.4264 -2.3630 -2.1564 -1.8771 -1.5032
-1.0439 -0.5001 0.1136 0.7282 1.3786 1.9775
2.4837 2.9403 3.3123 3.5906 3.7716 3.7615
3.6127 3.3509 2.9393 2.4396 1.8884 1.3408
0.7933 0.2605 -0.2576 -0.7987 -1.3242 -1.8460
-2.3319 -2.7159 -3.0154 -3.1964 -3.2524 -3.2056
-3.0457 -2.8446 -2.5947 -2.3219 -2.0573 -1.7927
-1.5502 -1.2700 -0.9816 -0.7032 -0.4148 -0.1061
0.2007 0.5057 0.8153 1.0357 1.2158 1.3297
1.3619 1.3628 1.2957 1.2231 1.1799 1.1772
1.2011 1.2433 1.3278 1.4179 1.5005 1.5501
1.5492 1.4950 1.3875 1.2304 1.0274 0.8400
0.6333 0.4532 0.3540 0.2576 0.2364 0.3145
0.4707 0.7049 1.0081 1.4012 1.8008 2.1968
2.6065 2.9602 3.2514 3.4875 3.6712 3.8182
3.9183 3.9927 4.0892 4.1727 4.2407 4.2563
4.1590 3.9780 3.6831 3.3221 2.8949 2.4411
2.0626 1.7126 1.4186 1.2330 1.0888 0.9712
0.9299 0.8885 0.8545 0.8407 0.8031 0.7581
0.6901 0.6552 0.6147 0.5348 0.4898 0.4439
0.4016 0.3694 0.3281 0.2592 0.1793 0.0929
-0.0431 -0.1891 -0.3572 -0.5492 -0.7771 -1.0325
-1.3163 -1.6388 -1.9263 -2.2139 -2.5143 -2.7899
-3.0471 -3.2850 -3.4476 -3.5496 -3.5716 -3.4513
-3.2226 -2.8404 -2.3333 -1.7132 -1.0105 -0.2618
0.5696 1.4055 2.2351 3.0490 3.8115 4.5207
5.1444 5.6442 6.0594 6.4351 6.6868 6.8439
6.9652 7.0249 7.0331 6.9789 6.9017 6.7906
6.6170 6.4038 6.1595 5.9344 5.6698 5.4218
5.2068 4.9551 4.7429 4.5233 4.2808 4.0282
3.8077 3.6635 3.6175 3.6947 3.8600 4.0906
4.3570 4.6896 4.9817 5.2463 5.5292 5.7690
5.9839 6.1134 6.2852 6.4276 6.5002 6.6343
6.7087 6.7758 6.7996 6.7427 6.6260 6.4083
6.1713 5.8617 5.4667 5.0432 4.5627 4.0528
3.6202 3.2224 2.8540 2.5747 2.3065 2.0713
1.7994 1.5072 1.1765 0.7558 0.3332 -0.1849
-0.7131 -1.2340 -1.7163 -2.0718 -2.3116 -2.3759
-2.3658 -2.2583 -2.0875 -1.9019 -1.6768 -1.4325
-1.1532 -0.9098 -0.6774 -0.4477 -0.2383 -0.0738
0.0621 0.1834 0.2550 0.2798 0.2624 0.2559
0.1907 0.0428 -0.1354 -0.3816 -0.7546 -1.1891
-1.6687 -2.2272 -2.7940 -3.3718 -3.9414 -4.4494
-4.8895 -5.2542 -5.5298 -5.7227 -5.8192 -5.8476
-5.8228 -5.7365 -5.6042 -5.3993 -5.1476 -4.7986
-4.3686 -3.8937 -3.3186 -2.6894 -2.0123 -1.3114
-0.6233 0.0500 0.6591 1.1855 1.6218 1.9093
2.0894 2.1574 2.0931 1.9893 1.7973 1.5345
1.2470 0.8970 0.5286 0.1630 -0.2247 -0.5674
-0.8788 -1.1967 -1.4199 -1.6367 -1.8351 -1.9591
-2.0648 -2.1135 -2.1603 -2.1971 -2.1539 -2.0979
-2.0014 -1.8278 -1.6239 -1.3713 -1.0966 -0.8201
-0.5142 -0.2119 0.0591 0.3310 0.6010 0.8564
1.1109 1.3157 1.4765 1.6318 1.7365 1.7971
1.8219 1.7897 1.7107 1.5739 1.3809 1.1485
0.9060 0.6690 0.4127 0.1270 -0.2387 -0.6787
-1.1435 -1.6552 -2.1678 -2.6272 -3.0369 -3.3694
-3.6258 -3.8352 -4.0088 -4.1338 -4.1825 -4.1696
-4.0823 -3.9436 -3.7516 -3.4825 -3.1885 -2.8495
-2.5216 -2.2111 -1.8951 -1.6268 -1.3687 -1.1225
-0.8993 -0.6632 -0.4051 -0.1883 -0.0220 0.1057
0.1691 0.1617 0.0634 -0.0854 -0.2710 -0.5282
-0.8369 -1.1970 -1.5608 -1.9282 -2.3067 -2.6154
-2.9397 -3.2107 -3.3705 -3.5193 -3.6241 -3.7114
-3.8097 -3.9328 -4.1000 -4.2828 -4.4711 -4.6218
-4.6998 -4.7678 -4.7642 -4.7495 -4.6640 -4.6071
-4.5639 -4.4307 -4.4427 -4.3205 -4.2571 -4.1818
-4.0660 -4.0302 -3.8685 -3.7739 -3.6233 -3.5323
-3.4671 -3.4157 -3.4487 -3.5029 -3.6214 -3.7905
-4.0596 -4.3527 -4.6981 -5.0674 -5.4634 -5.9337
-6.4353 -6.9920 -7.5680 -8.1256 -8.6731 -9.1444
-9.5201 -9.8334 -10.0355 -10.1485 -10.1724 -10.0934
-9.9189 -9.6506 -9.3346 -8.9635 -8.6024 -8.2626
-7.9006 -7.6002 -7.3329 -7.0564 -6.7900 -6.5034
-6.2168 -5.9127 -5.5985 -5.2981 -5.0345 -4.8195
-4.5761 -4.3262 -4.1113 -3.9183 -3.7383 -3.5950
-3.4783 -3.3938 -3.3369 -3.2092 -3.0411 -2.8472
-2.6461 -2.4394 -2.1877 -1.9461 -1.6833 -1.4013
-1.1147 -0.8446 -0.6241 -0.4073 -0.2530 -0.1511
-0.0840 -0.0326 0.0088 -0.0124 0.0106 0.0565
0.1273 0.2706 0.4543 0.6867 0.9182 1.1506
1.3794 1.5851 1.7588 1.8920 2.0316 2.1786
2.3237 2.4799 2.6562 2.8244 2.9814 3.1652
3.3314 3.5078 3.6925 3.8211 3.8927 3.8890
3.8174 3.6493 3.3975 3.1164 2.8105 2.5092
2.2308 1.9957 1.7651 1.5602 1.4261 1.3012
1.1937 1.1266 1.0540 0.9116 0.7573 0.5745
0.3356 0.1216 -0.1044 -0.2992 -0.4186 -0.4866
-0.4434 -0.3194 -0.1605 0.0848 0.3411 0.5744
0.8124 0.9814 1.0861 1.1274 1.0824 0.9520
0.7710 0.5983 0.4072 0.2474 0.1913 0.1729
0.1987 0.2804 0.3980 0.5147 0.6212 0.7186
0.7434 0.7682 0.7884 0.7865 0.8068 0.8031
0.8260 0.8738 0.9409 1.0621 1.2210 1.4029
1.5765 1.7456 1.8852 1.9927 2.0901 2.1479
2.2315 2.3335 2.4281 2.5696 2.7009 2.8507
3.0537 3.2402 3.4147 3.5745 3.6930 3.7601
3.7757 3.8014 3.8170 3.8060 3.8216 3.7987
3.7536 3.7086 3.6434 3.5956 3.5837 3.6223
3.6516 3.6921 3.7490 3.7885 3.8519 3.9346
4.0567 4.1844 4.3020 4.4343 4.5372 4.6235
4.6437 4.6336 4.6116 4.5114 4.3975 4.2276
4.0420 3.8399 3.6203 3.4531 3.2786 3.1454
3.0333 2.9433 2.8854 2.8220 2.7329 2.6438
2.5473 2.3838 2.2396 2.0595 1.8464 1.6553
1.4431 1.2603 1.0894 0.9644 0.8845 0.8680
0.9213 0.9681 1.0287 1.0223 0.9644 0.8634
0.6971 0.5372 0.3755 0.2653 0.1909 0.1606
0.1982 0.2690 0.3801 0.5014 0.6043 0.6603
0.6768 0.6456 0.5409 0.3948 0.2230 0.0135
-0.2437 -0.5514 -0.8757 -1.2331 -1.6410 -2.0204
-2.4053 -2.8159 -3.2183 -3.6730 -4.1370 -4.6091
-5.1263 -5.6132 -6.0726 -6.4474 -6.7432 -6.9912
-7.1024 -7.1520 -7.1042 -6.9242 -6.7248 -6.4318
-6.0487 -5.6647 -5.2449 -4.7975 -4.3217 -3.8256
-3.3176 -2.7848 -2.2557 -1.7403 -1.2654 -0.8226
-0.4413 -0.1391 0.1181 0.3156 0.4525 0.5159
0.5140 0.4433 0.3248 0.1952 0.0501 -0.1144
-0.2751 -0.4276 -0.5884 -0.7234 -0.8364 -0.9265
-0.9908 -1.0404 -1.0477 -1.0532 -1.0477 -1.0027
-0.9421 -0.8438 -0.6748 -0.4718 -0.2715 -0.0538
0.1529 0.3449 0.5295 0.6673 0.7629 0.8024
0.7674 0.6581 0.4661 0.1823 -0.1549 -0.5380
-0.9523 -1.3326 -1.7203 -2.1052 -2.4515 -2.7933
-3.0882 -3.3518 -3.5934 -3.8102 -4.0445 -4.2686
-4.4919 -4.7390 -5.0027 -5.2535 -5.4776 -5.6806
-5.8396 -5.9434 -5.9911 -5.9719 -5.8929 -5.7275
-5.4951 -5.2709 -5.0082 -4.7519 -4.5388 -4.3339
-4.1925 -4.1098 -4.1116 -4.1750 -4.3009 -4.5048
-4.7033 -4.8999 -5.1066 -5.2885 -5.4309 -5.5411
-5.6256 -5.6679 -5.6541 -5.6229 -5.5439 -5.4217
-5.2766 -5.0570 -4.8108 -4.5077 -4.1687 -3.8260
-3.4338 -3.0296 -2.5941 -2.1468 -1.6994 -1.2483
-0.8111 -0.3426 0.1269 0.5899 1.0767 1.5388
1.9834 2.4033 2.8065 3.2245 3.6296 4.0761
4.5749 5.0857 5.6516 6.2321 6.7714 7.2941
7.8021 8.2734 8.7143 9.1148 9.4805 9.8185
10.1152 10.3798 10.6232 10.8556 11.0513 11.2203
11.3563 11.4757 11.6080 11.7008 11.7834 11.8744
11.9424 11.9552 11.9332 11.9010 11.8009 11.6530
11.4803 11.2837 11.0779 10.8785 10.6783 10.4642
10.2419 10.0168 9.7890 9.5474 9.3572 9.2029
9.0568 8.9236 8.7821 8.6508 8.4900 8.3155
8.1510 7.9967 7.9048 7.8671 7.9140 8.0821
8.3274 8.6471 9.0329 9.4362 9.8257 10.1885
10.5064 10.7636 10.9390 11.0236 11.0355 10.9445
10.7516 10.5137 10.2225 9.8798 9.5114 9.1274
8.7526 8.3769 7.9626 7.5235 7.0761 6.6112
6.1253 5.6127 5.1175 4.6527 4.2136 3.8185
3.4750 3.1828 2.9688 2.8411 2.7823 2.8016
2.8778 3.0000 3.1718 3.3518 3.5117 3.6651
3.8148 3.9489 4.0729 4.1804 4.2741 4.4202
4.6131 4.7812 4.9695 5.1266 5.1946 5.1845
5.0384 4.8032 4.5120 4.1675 3.8147 3.4987
3.2139 2.9328 2.7188 2.5387 2.3605 2.1924
2.0142 1.8460 1.6403 1.4336 1.1975 0.9265
0.6913 0.4396 0.2035 0.0105 -0.1420 -0.2476
-0.2770 -0.2807 -0.2862 -0.2283 -0.2008 -0.1971
-0.2063 -0.2559 -0.3377 -0.4718 -0.6114 -0.7722
-0.9284 -1.1048 -1.3133 -1.5411 -1.8158 -2.1098
-2.4515 -2.8061 -3.1626 -3.4868 -3.8001 -4.1115
-4.3596 -4.5929 -4.8005 -4.9732 -5.0752 -5.1257
-5.1432 -5.1147 -5.0780 -5.0091 -4.9540 -4.9227
-4.8998 -4.9218 -4.9567 -5.0146 -5.0863 -5.1717
-5.2875 -5.4262 -5.6191 -5.8267 -6.0592 -6.3403
-6.6590 -6.9797 -7.3104 -7.6686 -7.9727 -8.2823
-8.5487 -8.7664 -8.9924 -9.1220 -9.2120 -9.2267
-9.1541 -9.0522 -8.9125 -8.7858 -8.6847 -8.6461
-8.6572 -8.6967 -8.7610 -8.8354 -8.8951 -8.8722
-8.8124 -8.6995 -8.5102 -8.2999 -8.0730 -7.8433
-7.6035 -7.4088 -7.2737 -7.2177 -7.2407 -7.3022
-7.3987 -7.4988 -7.5650 -7.5733 -7.5558 -7.4401
-7.2095 -6.9495 -6.6565 -6.3331 -6.0070 -5.7415
-5.5128 -5.3272 -5.1710 -4.9983 -4.9248 -4.8679
-4.7770 -4.7825 -4.8082 -4.8495 -4.9561 -5.0912
-5.2767 -5.5450 -5.8702 -6.2128 -6.5858 -6.9818
-7.3961 -7.8076 -8.1806 -8.5324 -8.8512 -9.1709
-9.4750 -9.7469 -10.0207 -10.2292 -10.3790 -10.4901
-10.4965 -10.4488 -10.3340 -10.1484 -9.9610 -9.7139
-9.4135 -9.0809 -8.7466 -8.4177 -8.0842 -7.7884
-7.5165 -7.2510 -7.0021 -6.7743 -6.5749 -6.4151
-6.2341 -6.0724 -5.9576 -5.8547 -5.8391 -5.8648
-5.9594 -6.1661 -6.4381 -6.7761 -7.1317 -7.5101
-7.8721 -8.1651 -8.4104 -8.5730 -8.6309 -8.5648
-8.3967 -8.1018 -7.6700 -7.1758 -6.6072 -5.9944
-5.3468 -4.6633 -3.9596 -3.2486 -2.5385 -1.7769
-0.9952 -0.2042 0.6069 1.4429 2.3027 3.1341
3.9434 4.6848 5.3499 5.9645 6.4706 6.8877
7.2294 7.5096 7.7484 7.9285 8.0883 8.2390
8.3575 8.4163 8.4301 8.3850 8.2426 8.0369
7.7824 7.4994 7.1669 6.8242 6.4999 6.1692
5.9304 5.7228 5.5602 5.5050 5.4995 5.5657
5.6171 5.6639 5.7273 5.7613 5.7732 5.7576
5.7475 5.7089 5.6676 5.6354 5.6069 5.5821
5.5491 5.5353 5.4728 5.3506 5.1651 4.9207
4.6763 4.3980 4.1003 3.8256 3.5252 3.2616
3.0282 2.7710 2.5349 2.2878 2.0444 1.8468
1.6934 1.5859 1.5253 1.4977 1.4941 1.4950
1.4435 1.3425 1.1964 0.9631 0.6691 0.3476
-0.0116 -0.3773 -0.7227 -1.0424 -1.3446 -1.6202
-1.8581 -2.0749 -2.2734 -2.4470 -2.5912 -2.7134
-2.8402 -2.9119 -2.9247 -2.9422 -2.9275 -2.8531
-2.7649 -2.6758 -2.5940 -2.5159 -2.4342 -2.3423
-2.1807 -2.0107 -1.8398 -1.6295 -1.4182 -1.1876
-0.9626 -0.7292 -0.4738 -0.2194 0.0158 0.2059
0.3309 0.3603 0.2877 0.1003 -0.1817 -0.5033
-0.8248 -1.1408 -1.4403 -1.7150 -1.9548 -2.1569
-2.3599 -2.5455 -2.7320 -2.8918 -3.0039 -3.0921
-3.0948 -3.0122 -2.8147 -2.4922 -2.0715 -1.5377
-0.9406 -0.2930 0.3602 1.0152 1.6600 2.2415
2.7762 3.2328 3.6324 3.9768 4.2414 4.4316
4.5519 4.6327 4.6585 4.6401 4.5758 4.4646
4.3259 4.1431 3.9208 3.6617 3.3687 3.0177
2.6539 2.3214 1.9374 1.5699 1.3136 1.1437
1.0500 1.0463 1.1225 1.2291 1.4091 1.6581
1.9429 2.2855 2.6640 3.0746 3.5146 3.9244
4.3230 4.7438 5.0975 5.3923 5.6532 5.8517
6.0188 6.1272 6.1695 6.1621 6.0923 5.9573
5.7653 5.5145 5.2453 4.9973 4.7584 4.5618
4.3854 4.2403 4.1319 4.0281 3.9656 3.9169
3.8893 3.8462 3.7892 3.7423 3.6413 3.5660
3.5136 3.4722 3.5053 3.5641 3.6734 3.8130
3.9389 4.0675 4.1713 4.2264 4.2521 4.2696
4.2310 4.1685 4.0813 4.0179 3.9692 3.8286
3.6522 3.4373 3.1846 2.8916 2.5691 2.2301
1.8783 1.5503 1.2150 0.9036 0.6188 0.3497
0.1025 -0.1161 -0.2989 -0.4863 -0.6921 -0.8850
-1.0761 -1.3104 -1.5354 -1.7348 -1.9332 -2.0701
-2.1409 -2.1675 -2.1170 -1.9985 -1.8322 -1.5989
-1.3692 -1.1625 -0.9595 -0.8098 -0.7069 -0.6527
-0.6398 -0.6343 -0.6490 -0.6885 -0.7418 -0.8172
-0.8916 -0.9678 -1.0744 -1.1892 -1.3298 -1.4841
-1.6430 -1.8378 -2.0151 -2.1887 -2.3495 -2.4441
-2.5553 -2.5461 -2.4643 -2.4478 -2.2806 -2.0289
-1.7791 -1.5274 -1.2747 -0.9817 -0.7309 -0.4976
-0.2945 -0.1136 0.0848 0.2961 0.5396 0.8106
1.1358 1.5023 1.9111 2.3456 2.7829 3.2110
3.6069 3.9367 4.1820 4.3960 4.5687 4.6909
4.7892 4.8709 4.9417 5.0041 5.1006 5.1869
5.2567 5.3238 5.3569 5.3899 5.3982 5.3697
5.3183 5.2512 5.1749 5.0693 4.9297 4.7597
4.5760 4.3518 4.1267 3.8851 3.5939 3.3358
3.0556 2.8094 2.6615 2.4787 2.2867 2.1939
2.2021 2.2462 2.3142 2.4134 2.5439 2.7037
2.8084 2.8553 2.9251 2.9646 2.9646 2.9848
3.0270 3.0472 3.0436 3.0775 3.0886 3.0592
3.0068 2.9452 2.8571 2.6733 2.4639 2.2268
1.9255 1.5672 1.1713 0.7313 0.2205 -0.2949
-0.8323 -1.3890 -1.9246 -2.4519 -2.9672 -3.5120
-4.0319 -4.5299 -5.0296 -5.4191 -5.7710 -6.0567
-6.2340 -6.3525 -6.3727 -6.3424 -6.2707 -6.1642
-6.0346 -5.9391 -5.8638 -5.7655 -5.7343 -5.7085
-5.7251 -5.7775 -5.8271 -5.8895 -5.8960 -5.9144
-5.9658 -6.0356 -6.1192 -6.2359 -6.3893 -6.5574
-6.7908 -7.0507 -7.3218 -7.6001 -7.8518 -8.1090
-8.3406 -8.5087 -8.6474 -8.7567 -8.8128 -8.8192
-8.7576 -8.6437 -8.4876 -8.2689 -8.0301 -7.7784
-7.5313 -7.2998 -7.0931 -6.9149 -6.7284 -6.5621
-6.3674 -6.1506 -5.9531 -5.7354 -5.5213 -5.3211
-5.1447 -4.9720 -4.8085 -4.6734 -4.5329 -4.4695
-4.4474 -4.3703 -4.3547 -4.3685 -4.3556 -4.3519
-4.3363 -4.3198 -4.3409 -4.3914 -4.4310 -4.4640
-4.4870 -4.4879 -4.4512 -4.3685 -4.2564 -4.1361
-4.0360 -3.9349 -3.8036 -3.6566 -3.4774 -3.2478
-2.9887 -2.6792 -2.3099 -1.9158 -1.4969 -1.0550
-0.6131 -0.1952 0.1971 0.5324 0.7933 0.9899
1.1304 1.2094 1.2407 1.2645 1.2553 1.2250
1.1782 1.1084 1.0009 0.8217 0.6233 0.3743
0.0960 -0.2072 -0.5361 -0.8493 -1.1607 -1.3959
-1.5916 -1.7211 -1.7450 -1.7257 -1.6109 -1.4327
-1.1920 -0.7988 -0.3450 0.0803 0.5635 1.1689
1.8119 2.4238 3.0714 3.7696 4.5082 5.2045
5.7832 6.3013 6.7478 7.0813 7.2733 7.3798
7.4175 7.3614 7.2806 7.1474 6.9765 6.7836
6.5429 6.2930 6.0294 5.7473 5.4809 5.2209
4.9150 4.5917 4.2665 3.9284 3.5756 3.2403
2.9344 2.6469 2.4135 2.2169 2.0874 2.0222
1.9817 1.9725 1.9735 1.9735 1.9643 1.9523
1.9459 1.9312 1.9211 1.9293 1.9698 2.0093
2.0093 2.0001 1.9716 1.9082 1.8512 1.8035
1.6822 1.4966 1.3533 1.2284 1.0685 0.8297
0.5871 0.4429 0.3023 0.1416 0.0029 -0.0716
-0.0918 -0.1239 -0.0624 0.0561 0.1517 0.2849
0.4144 0.5503 0.6982 0.8351 0.9573 1.0519
1.1364 1.1787 1.2081 1.2402 1.2466 1.2577
1.2576 1.2365 1.2126 1.2007 1.2255 1.2650
1.2971 1.3201 1.3182 1.2870 1.2163 1.1354
1.0344 0.9113 0.7799 0.6384 0.5273 0.3876
0.2801 0.2480 0.1873 0.1166 0.0688 0.0578
0.0716 0.0752 0.0890 0.0918 0.0890 0.1230
0.1781 0.2608 0.3582 0.4886 0.6622 0.8303
1.0407 1.2869 1.5459 1.8344 2.1036 2.3433
2.5509 2.7043 2.8118 2.8789 2.8890 2.8587
2.8017 2.7227 2.6474 2.5509 2.4609 2.3864
2.2900 2.2000 2.1283 2.0732 2.0355 2.0355
2.0603 2.0722 2.0860 2.0851 2.0566 1.9987
1.9372 1.8903 1.8425 1.8021 1.7690 1.7525
1.7663 1.8049 1.8839 1.9913 2.0685 2.1705
2.3037 2.4387 2.5701 2.6794 2.8512 3.0606
3.2388 3.4079 3.5916 3.7698 3.9342 4.0757
4.1483 4.2217 4.2796 4.2447 4.1611 4.0747
3.9498 3.7762 3.6145 3.4216 3.1882 2.9393
2.6802 2.4322 2.1667 1.9049 1.6651 1.4069
1.1571 0.9265 0.6876 0.4662 0.2513 0.0749
-0.0657 -0.1649 -0.2347 -0.2898 -0.2577 -0.2301
-0.1897 -0.1107 -0.0675 -0.0519 -0.0740 -0.1365
-0.2458 -0.3882 -0.5646 -0.7814 -1.0239 -1.2738
-1.5356 -1.8002 -2.0298 -2.2310 -2.4506 -2.7050
-2.9136 -3.0725 -3.2324 -3.4574 -3.6816 -3.8028
-3.9406 -4.1051 -4.1804 -4.1657 -4.1354 -4.1143
-4.0895 -4.0803 -4.0913 -4.1455 -4.2438 -4.3752
-4.5599 -4.7840 -5.0587 -5.3545 -5.6678 -6.0095
-6.3568 -6.7224 -7.0825 -7.4380 -7.7614 -8.0370
-8.3089 -8.5698 -8.7434 -8.8270 -8.9051 -8.9465
-8.9502 -8.8996 -8.7223 -8.4817 -8.1868 -7.8111
-7.4004 -6.9292 -6.3954 -5.8580 -5.3509 -4.8475
-4.3441 -3.8995 -3.5247 -3.2344 -3.0167 -2.8651
-2.8826 -3.0415 -3.2160 -3.4136 -3.6689 -3.9326
-4.1127 -4.2110 -4.3111 -4.3635 -4.3359 -4.2468
-4.1402 -4.0576 -3.9042 -3.7076 -3.4954 -3.2501
-2.9727 -2.6245 -2.2405 -1.8161 -1.3623 -0.9296
-0.4988 -0.0587 0.3151 0.6578 0.9931 1.2549
1.4542 1.5626 1.6453 1.6747 1.5828 1.4726
1.2861 1.0463 0.7616 0.4134 0.1010 -0.2242
-0.5328 -0.7947 -1.0436 -1.2641 -1.4340 -1.5810
-1.7005 -1.7299 -1.7712 -1.8098 -1.7372 -1.6261
-1.5076 -1.3624 -1.1741 -0.9573 -0.7368 -0.5200
-0.3134 -0.0984 0.0532 0.1570 0.2305 0.2387
0.2029 0.1377 0.0706 -0.0139 -0.0746 -0.1104
-0.1288 -0.1049 -0.0755 -0.0305 0.0228 0.0641
0.0981 0.1137 0.0825 0.0173 -0.0847 -0.2299
-0.4182 -0.6286 -0.8316 -1.0842 -1.3506 -1.6244
-1.9395 -2.2858 -2.6790 -3.0694 -3.5003 -3.9532
-4.3794 -4.8351 -5.2623 -5.6665 -6.0477 -6.3628
-6.6182 -6.8093 -6.9388 -7.0114 -7.0206 -6.9333
-6.7891 -6.5852 -6.2985 -5.9440 -5.5306 -5.0933
-4.6073 -4.0883 -3.5491 -3.0135 -2.4963 -1.9947
-1.5161 -1.0825 -0.7656 -0.4275 -0.1161 -0.1299
-0.1391 0.0345 -0.0096 -0.2016 -0.4184 -0.6609
-0.9282 -1.3049 -1.6714 -2.0977 -2.5423 -2.8978
-3.2699 -3.5786 -3.8027 -3.9414 -4.0149 -4.0609
-4.0085 -3.9267 -3.8367 -3.7008 -3.5418 -3.3563
-3.1367 -2.8676 -2.5865 -2.2659 -1.8929 -1.5273
-1.1313 -0.7281 -0.3349 0.0473 0.3807 0.6866
0.9282 1.1019 1.2057 1.2167 1.1487 0.9558
0.6811 0.3596 -0.0061 -0.3790 -0.7447 -1.0864
-1.4281 -1.7405 -2.0069 -2.2200 -2.3367 -2.3542
-2.2779 -2.1135 -1.8893 -1.6064 -1.2527 -0.8788
-0.4544 0.0159 0.4991 0.9704 1.4178 1.8495
2.2059 2.5321 2.7810 2.9390 3.1062 3.1926
3.2293 3.3478 3.4369 3.3992 3.3717 3.4782
3.5508 3.4828 3.4222 3.3716 3.2678 3.1521
3.0547 2.9711 2.9435 2.9977 3.1144 3.2899
3.5168 3.7951 4.0854 4.4152 4.7973 5.1868
5.5855 5.9612 6.3452 6.7292 7.0305 7.3098
7.5652 7.7875 8.0282 8.2248 8.3956 8.5849
8.7181 8.7980 8.8522 8.8503 8.8145 8.7291
8.5977 8.4691 8.2945 8.0584 7.8159 7.5504
7.3070 7.0819 6.8541 6.6961 6.5307 6.4205
6.3736 6.3341 6.3947 6.5059 6.6979 6.9505
7.2040 7.5265 7.8774 8.2283 8.5737 8.9081
9.2370 9.4960 9.7110 9.9223 10.0766 10.1547
10.1528 10.0876 10.0049 9.8818 9.7422 9.6108
9.4142 9.2057 8.9916 8.6866 8.3449 8.0372
7.7404 7.4804 7.2802 7.0964 6.9292 6.7758
6.6858 6.6610 6.6582 6.6950 6.7097 6.6876
6.6187 6.4901 6.3652 6.2448 6.1346 6.0317
5.9370 5.8314 5.7377 5.7000 5.6679 5.6725
5.6908 5.6899 5.6633 5.5558 5.4161 5.2517
5.0680 4.8429 4.5223 4.1309 3.6587 3.1379
2.6225 2.1420 1.7240 1.3502 0.9634 0.5592
0.1559 -0.2070 -0.5175 -0.7710 -0.9566 -1.1137
-1.2836 -1.4692 -1.6254 -1.8183 -1.9864 -2.0443
-2.0939 -2.1435 -2.2143 -2.2841 -2.3447 -2.4421
-2.5055 -2.5331 -2.5854 -2.6911 -2.8711 -3.0907
-3.3690 -3.6786 -3.9708 -4.2758 -4.5661 -4.8435
-5.1402 -5.4305 -5.6740 -5.9248 -6.1857 -6.4631
-6.7635 -7.0088 -7.2320 -7.3790 -7.4507 -7.4635
-7.3560 -7.2311 -7.1016 -6.9326 -6.7507 -6.5100
-6.1931 -5.8238 -5.4242 -5.0218 -4.6268 -4.2079
-3.8101 -3.4326 -3.0330 -2.6701 -2.3403 -2.0822
-1.9168 -1.8029 -1.7377 -1.7404 -1.8507 -2.0160
-2.2641 -2.6086 -2.9843 -3.4179 -3.8818 -4.3173
-4.6792 -4.9769 -5.2378 -5.4362 -5.5758 -5.6677
-5.6824 -5.6631 -5.6163 -5.4886 -5.3030 -5.0513
-4.7601 -4.4303 -4.0895 -3.7395 -3.3656 -3.0074
-2.6693 -2.3689 -2.0740 -1.8563 -1.7112 -1.5991
-1.5284 -1.4953 -1.4990 -1.5146 -1.5789 -1.6735
-1.8159 -1.9657 -2.1209 -2.3102 -2.4544 -2.6115
-2.7916 -2.9817 -3.1802 -3.3694 -3.5522 -3.6827
-3.7874 -3.8618 -3.9105 -3.9767 -3.9987 -3.9739
-3.9528 -3.9252 -3.8802 -3.8223 -3.7535 -3.6496
-3.5293 -3.4090 -3.2464 -3.0571 -2.8606 -2.6732
-2.4959 -2.3379 -2.2184 -2.1110 -2.0439 -2.0402
-2.0623 -2.1101 -2.1762 -2.2341 -2.2837 -2.3324
-2.4031 -2.4693 -2.5363 -2.6319 -2.7302 -2.8266
-2.9056 -3.0067 -3.1509 -3.2832 -3.4027 -3.5138
-3.5910 -3.6268 -3.6277 -3.5855 -3.5515 -3.5368
-3.4505 -3.3384 -3.2079 -3.0224 -2.8295 -2.6053
-2.4014 -2.2085 -2.0247 -1.8318 -1.6077 -1.4139
-1.2237 -1.0501 -0.8627 -0.7157 -0.6101 -0.5127
-0.4870 -0.4668 -0.4750 -0.5247 -0.5715 -0.6230
-0.6689 -0.7038 -0.7415 -0.7608 -0.7470 -0.7295
-0.6882 -0.6340 -0.5697 -0.4797 -0.3603 -0.1866
0.0026 0.1817 0.3811 0.6328 0.9277 1.2400
1.6038 2.0015 2.4103 2.8577 3.2803 3.6964
4.0979 4.4800 4.8622 5.1800 5.4832 5.7358
5.9260 6.0647 6.0913 6.0582 5.9535 5.7597
5.4785 5.1230 4.7804 4.4193 4.0133 3.6192
3.2517 2.8852 2.5104 2.1806 1.8673 1.5889
1.3418 1.0920 0.9110 0.7502 0.6106 0.5279
0.4709 0.4599 0.4911 0.5720 0.6785 0.8108
0.9706 1.1727 1.4483 1.7616 2.1033 2.4625
2.8419 3.2002 3.4960 3.7872 4.0242 4.2189
4.3880 4.4761 4.5469 4.5515 4.4881 4.4137
4.2805 4.1316 3.9727 3.8009 3.6668 3.5033
3.3223 3.1817 3.0007 2.8234 2.6278 2.3999
2.1785 1.9397 1.7459 1.5777 1.4849 1.4776
1.5189 1.6420 1.7973 1.9847 2.1656 2.3328
2.5248 2.6608 2.7517 2.8078 2.8087 2.8215
2.8068 2.7480 2.6644 2.5542 2.4320 2.2639
2.0443 1.7678 1.4913 1.2157 0.8785 0.5331
0.1703 -0.1944 -0.5316 -0.8522 -1.1287 -1.3731
-1.5706 -1.7075 -1.8205 -1.8885 -1.9151 -1.9114
-1.8637 -1.8150 -1.7342 -1.6405 -1.5679 -1.4981
-1.4659 -1.4540 -1.4944 -1.5753 -1.6533 -1.7305
-1.8242 -1.9069 -1.9878 -2.1210 -2.2441 -2.3534
-2.4765 -2.6023 -2.6970 -2.7898 -2.9276 -3.0690
-3.2133 -3.3942 -3.5991 -3.8095 -4.0098 -4.1962
-4.3680 -4.4939 -4.6041 -4.6877 -4.7346 -4.7373
-4.6969 -4.6547 -4.5692 -4.4985 -4.4305 -4.3111
-4.2036 -4.1109 -4.0557 -4.0319 -4.0567 -4.1256
-4.1871 -4.2762 -4.3874 -4.5234 -4.6896 -4.8752
-5.0856 -5.2785 -5.4613 -5.6561 -5.8233 -5.9666
-6.0970 -6.2064 -6.3148 -6.3800 -6.4048 -6.3975
-6.3102 -6.1945 -6.0530 -5.8527 -5.6405 -5.4017
-5.1500 -4.9148 -4.6594 -4.4270 -4.1946 -3.9420
-3.7132 -3.4331 -3.1345 -2.8911 -2.6467 -2.4216
-2.2278 -2.0588 -1.9357 -1.8006 -1.6877 -1.6004
-1.4892 -1.4332 -1.4314 -1.4507 -1.5122 -1.5646
-1.6234 -1.7180 -1.7943 -1.8972 -2.0221 -2.1452
-2.2784 -2.3960 -2.5062 -2.6137 -2.7295 -2.8241
-2.8994 -2.9500 -2.9674 -2.9720 -2.9316 -2.9105
-2.8609 -2.7672 -2.6955 -2.6055 -2.5192 -2.4383
-2.3658 -2.2950 -2.2289 -2.1416 -2.0112 -1.8908
-1.7521 -1.5675 -1.3865 -1.2083 -1.0292 -0.9180
-0.8170 -0.7113 -0.6681 -0.6434 -0.6553 -0.7031
-0.7490 -0.8041 -0.8629 -0.9116 -0.9594 -0.9980
-1.0421 -1.1156 -1.1670 -1.2111 -1.2589 -1.2993
-1.3554 -1.4096 -1.4463 -1.4472 -1.4206 -1.3747
-1.2810 -1.1340 -0.9420 -0.7133 -0.4441 -0.1685
0.1420 0.5039 0.8291 1.1810 1.5392 1.8635
2.1694 2.4239 2.6719 2.8602 3.0008 3.1211
3.2084 3.2745 3.2966 3.2966 3.2598 3.1753
3.0485 2.8905 2.6911 2.4725 2.2759 2.0793
1.9121 1.7807 1.6659 1.5832 1.5235 1.4711
1.4326 1.4059 1.3839 1.3976 1.4463 1.5308
1.6576 1.8349 2.0287 2.2216 2.4274 2.6019
2.7655 2.9097 3.0328 3.1550 3.2496 3.3322
3.3947 3.4103 3.3855 3.3460 3.2771 3.1614
3.0272 2.8858 2.7323 2.5697 2.3768 2.1572
1.9074 1.6272 1.3470 1.0696 0.8234 0.5928
0.4054 0.2703 0.1169 -0.0154 -0.1302 -0.2469
-0.3094 -0.3819 -0.4499 -0.5069 -0.5932 -0.6346
-0.6658 -0.6686 -0.6355 -0.6070 -0.5749 -0.5823
-0.5979 -0.6172 -0.6695 -0.7302 -0.8156 -0.9139
-0.9902 -1.0829 -1.2134 -1.3328 -1.4366 -1.5405
-1.6250 -1.6764 -1.6672 -1.6443 -1.5745 -1.4247
-1.2502 -1.0352 -0.8184 -0.5759 -0.3362 -0.1184
0.0754 0.2187 0.3409 0.4208 0.4934 0.5466
0.5861 0.6008 0.5962 0.5898 0.5632 0.5540
0.5292 0.5007 0.4860 0.4814 0.4703 0.4685
0.4915 0.5328 0.6421 0.7716 0.9159 1.1069
1.3210 1.5525 1.7840 1.9888 2.1863 2.3526
2.4849 2.5731 2.6126 2.6227 2.5933 2.5556
2.5069 2.4490 2.4077 2.3764 2.3415 2.2947
2.2249 2.1477 2.0944 2.0531 2.0429 2.0530
2.0751 2.1330 2.1734 2.2064 2.2193 2.2156
2.2469 2.2781 2.3323 2.3938 2.4333 2.4554
2.4342 2.4067 2.3672 2.3111 2.2284 2.0916
1.9887 1.8747 1.7232 1.6166 1.5027 1.3897
1.2868 1.1876 1.0957 0.9827 0.9129 0.8697
0.8467 0.8495 0.8385 0.8421 0.8504 0.8311
0.8109 0.8054 0.7989 0.8008 0.8109 0.8118
0.8164 0.8458 0.8522 0.8384 0.8375 0.7961
0.7447 0.6675 0.5582 0.4627 0.3469 0.2321
0.0970 -0.0233 -0.1437 -0.2787 -0.3853 -0.4900
-0.5249 -0.5341 -0.5534 -0.5139 -0.4423 -0.3752
-0.2879 -0.1841 -0.0886 -0.0023 0.0639 0.1392
0.1980 0.2485 0.2853 0.3248 0.3817 0.4038
0.4423 0.4387 0.3982 0.3449 0.2522 0.1915
0.1061 0.0206 -0.0143 -0.0593 -0.0556 -0.0262
-0.0014 0.0675 0.1428 0.2420 0.3770 0.5093
0.6829 0.8667 1.0458 1.2552 1.4665 1.6723
1.8689 2.0728 2.2602 2.4577 2.6506 2.8077
2.9216 2.9951 3.0300 2.9933 2.9501 2.8720
2.7774 2.6837 2.5615 2.3851 2.1499 1.9065
1.6327 1.3663 1.0889 0.8280 0.5910 0.3631
0.1711 -0.0025 -0.1118 -0.1816 -0.1835 -0.1339
-0.0586 0.0645 0.1987 0.3401 0.5046 0.6883
0.8702 1.0612 1.2422 1.4195 1.5858 1.7116
1.7980 1.8145 1.7897 1.7254 1.5931 1.4287
1.1990 0.8756 0.4907 0.0534 -0.3866 -0.8459
-1.3402 -1.8289 -2.3204 -2.8045 -3.2822 -3.7259
-4.1127 -4.4673 -4.7723 -5.0240 -5.1691 -5.2408
-5.2932 -5.2481 -5.1590 -4.9918 -4.7604 -4.5151
-4.1917 -3.8518 -3.4899 -3.1270 -2.7596 -2.3985
-2.0972 -1.8216 -1.5773 -1.3706 -1.2062 -1.0987
-1.0482 -1.0123 -0.9995 -1.0151 -1.0518 -1.1281
-1.2145 -1.3100 -1.4202 -1.5406 -1.6637 -1.7859
-1.8970 -1.9733 -2.0220 -2.0826 -2.0918 -2.0523
-2.0146 -1.9329 -1.8199 -1.6784 -1.5076 -1.3137
-1.0933 -0.8673 -0.6395 -0.4273 -0.2206 -0.0433
0.0936 0.2158 0.2939 0.3554 0.4188 0.4592
0.4757 0.4785 0.4638 0.4371 0.3912 0.3205
0.2571 0.2019 0.1395 0.1128 0.1156 0.0899
0.1110 0.1541 0.1670 0.2295 0.3268 0.4757
0.6814 0.9203 1.1913 1.4825 1.7810 2.0970
2.4470 2.7787 3.1140 3.4465 3.7680 4.0932
4.3652 4.6435 4.9016 5.1138 5.3159 5.4776
5.6145 5.7312 5.8193 5.8708 5.9149 5.9020
5.8313 5.7366 5.5777 5.4151 5.2148 4.9907
4.7537 4.4615 4.1915 3.9122 3.6448 3.4225
3.2057 3.0349 2.9090 2.7785 2.6830 2.6527
2.6536 2.6876 2.7243 2.7620 2.8070 2.8300
2.8290 2.8649 2.8961 2.9025 2.9108 2.8841
2.8658 2.8161 2.7537 2.6949 2.6021 2.4900
2.3274 2.1427 1.9397 1.7018 1.4583 1.2369
1.0146 0.7822 0.5709 0.3495 0.1189 -0.0988
-0.3165 -0.5140 -0.6886 -0.8429 -0.9724 -1.0799
-1.1387 -1.1617 -1.1718 -1.1452 -1.0983 -1.0230
-0.9091 -0.7998 -0.7006 -0.6170 -0.5563 -0.5279
-0.5169 -0.5031 -0.5224 -0.5398 -0.5490 -0.5904
-0.6216 -0.6565 -0.6951 -0.7236 -0.7750 -0.8219
-0.8963 -0.9873 -1.0773 -1.1921 -1.2969 -1.4209
-1.5743 -1.7645 -1.9464 -2.1282 -2.3349 -2.4957
-2.6271 -2.7502 -2.8512 -2.9100 -2.9560 -3.0065
-3.0304 -3.0332 -3.0387 -3.0506 -3.0378 -3.0460
-3.0598 -3.0460 -3.0424 -2.9983 -2.9588 -2.9138
-2.8403 -2.7668 -2.6676 -2.5730 -2.4673 -2.3663
-2.2505 -2.1421 -2.0650 -1.9547 -1.8565 -1.7582
-1.6626 -1.6176 -1.5937 -1.6084 -1.6415 -1.6691
-1.7077 -1.7554 -1.8115 -1.8694 -1.9245 -1.9989
-2.1156 -2.2203 -2.3168 -2.4050 -2.4619 -2.5143
-2.5327 -2.5373 -2.5419 -2.5538 -2.5511 -2.5263
-2.4840 -2.4344 -2.3903 -2.2847 -2.1781 -2.0743
-1.9540 -1.8621 -1.7353 -1.6168 -1.5250 -1.4359
-1.3697 -1.2981 -1.2154 -1.1355 -1.0418 -0.9417
-0.8406 -0.7561 -0.7111 -0.6688 -0.6349 -0.5880
-0.5274 -0.5191 -0.5448 -0.6101 -0.6928 -0.7773
-0.9004 -1.0354 -1.1705 -1.3000 -1.4305 -1.5912
-1.7070 -1.7924 -1.9017 -2.0101 -2.1479 -2.2536
-2.3381 -2.4686 -2.5715 -2.6817 -2.7432 -2.7322
-2.7644 -2.7800 -2.6946 -2.5595 -2.4778 -2.4144
-2.2959 -2.1296 -2.0019 -1.9303 -1.8265 -1.7163
-1.6124 -1.5197 -1.4646 -1.4241 -1.3764 -1.3727
-1.4186 -1.4297 -1.4738 -1.5895 -1.7292 -1.8982
-2.0994 -2.3290 -2.5486 -2.7875 -3.0392 -3.2486
-3.4654 -3.6767 -3.8320 -3.9560 -4.0525 -4.1269
-4.1682 -4.1554 -4.1361 -4.1186 -4.0194 -3.8375
-3.6024 -3.3369 -3.0282 -2.6617 -2.2364 -1.7825
-1.3407 -0.9420 -0.5846 -0.1621 0.1971 0.4516
0.6840 0.8806 1.0542 1.1433 1.2352 1.2545
1.2453 1.2820 1.2333 1.1626 1.0634 0.9687
0.8567 0.7437 0.5948 0.4074 0.3321 0.2384
0.0749 -0.0510 -0.1126 -0.1695 -0.1759 -0.0979
-0.0464 0.0666 0.2778 0.4460 0.5883 0.7647
0.9898 1.2112 1.4032 1.6319 1.8377 2.0673
2.3613 2.5910 2.7563 2.9180 3.1017 3.2625
3.3552 3.4094 3.4563 3.4793 3.4655 3.4149
3.3111 3.1843 3.0668 2.9473 2.8095 2.6800
2.5541 2.4467 2.4090 2.4099 2.3943 2.3676
2.3860 2.4099 2.4126 2.4641 2.5504 2.6349
2.6919 2.6992 2.6928 2.6919 2.6882 2.6652
2.6423 2.6211 2.5706 2.5081 2.4502 2.3777
2.3290 2.3207 2.2830 2.2656 2.2646 2.2444
2.2683 2.2839 2.3023 2.3390 2.3684 2.4171
2.4401 2.4483 2.4649 2.4639 2.4474 2.4318
2.4180 2.4061 2.3950 2.3923 2.4492 2.4795
2.4428 2.4373 2.4005 2.3013 2.1993 2.1460
2.1378 2.1001 2.0578 2.0303 1.9944 1.9577
1.9228 1.9053 1.9053 1.9577 2.0376 2.0955
2.1340 2.1138 2.0468 1.9255 1.7684 1.6196
1.4561 1.2971 1.1308 0.9627 0.7983 0.6155
0.4547 0.2921 0.0964 -0.1195 -0.3427 -0.5907
-0.8452 -1.0749 -1.2549 -1.3624 -1.4892 -1.5985
-1.6775 -1.7657 -1.8365 -1.9191 -1.9770 -2.0193
-2.0863 -2.1488 -2.1801 -2.2159 -2.2784 -2.3574
-2.4437 -2.5117 -2.6100 -2.7294 -2.8002 -2.8792
-2.9527 -3.0050 -3.0739 -3.1199 -3.1511 -3.1879
-3.2283 -3.2255 -3.2063 -3.2035 -3.1805 -3.2403
-3.3551 -3.4295 -3.4975 -3.5875 -3.6748 -3.7364
-3.7823 -3.7997 -3.7998 -3.7676 -3.7061 -3.6491
-3.5894 -3.5444 -3.4975 -3.4847 -3.5233 -3.5214
-3.5095 -3.5205 -3.5426 -3.5573 -3.5150 -3.4728
-3.4259 -3.3782 -3.3359 -3.2385 -3.1338 -3.0824
-3.0319 -2.9868 -2.9823 -2.9823 -2.9676 -2.9134
-2.8445 -2.7398 -2.6157 -2.5367 -2.4825 -2.4596
-2.4669 -2.5184 -2.6103 -2.7324 -2.8932 -3.0411
-3.1936 -3.3966 -3.6070 -3.7595 -3.8716 -3.9442
-3.9662 -3.9625 -3.9157 -3.8661 -3.8156 -3.7798
-3.7347 -3.6447 -3.5317 -3.3342 -3.0871 -2.7904
-2.4588 -2.1235 -1.7588 -1.4051 -1.0799 -0.7896
-0.5269 -0.3147 -0.1346 0.0271 0.1492 0.2659
0.4285 0.6232 0.7932 0.9714 1.1643 1.3627
1.5226 1.6411 1.7320 1.7734 1.8064 1.8128
1.8110 1.8193 1.8477 1.9286 2.0765 2.2418
2.3677 2.5000 2.6148 2.7425 2.8591 2.9023
2.9492 2.9464 2.8701 2.7682 2.6184 2.4871
2.3796 2.2684 2.2271 2.2390 2.2684 2.3428
2.4484 2.5651 2.6864 2.7736 2.8269 2.8618
2.8738 2.8692 2.8930 2.9913 3.1163 3.2688
3.4626 3.6638 3.8806 4.0771 4.2269 4.3537
4.4115 4.4161 4.3766 4.2710 4.1249 3.9366
3.7032 3.4947 3.3036 3.0951 2.9490 2.8388
2.7111 2.5677 2.3904 2.1746 1.9394 1.6941
1.4341 1.2017 1.0235 0.8857 0.7718 0.7130
0.6946 0.7231 0.7956 0.8737 0.9922 1.1530
1.3404 1.5158 1.6582 1.8383 2.0293 2.1552
2.2783 2.3830 2.4262 2.4289 2.3701 2.2884
2.1616 1.9971 1.7923 1.5442 1.2980 1.0105
0.7138 0.4244 0.1589 -0.0845 -0.2811 -0.3767
-0.4309 -0.4245 -0.4024 -0.3712 -0.2802 -0.1856
-0.0772 0.0642 0.1947 0.2764 0.3683 0.4537
0.5281 0.6062 0.6485 0.7164 0.7982 0.8873
1.0049 1.1059 1.1840 1.1914 1.1509 1.0471
0.8560 0.6273 0.3379 0.0513 -0.2335 -0.4907
-0.7094 -0.9262 -1.0961 -1.2449 -1.3331 -1.4305
-1.5499 -1.6859 -1.8531 -2.0231 -2.2252 -2.3464
-2.4613 -2.5605 -2.6276 -2.7093 -2.7121 -2.7240
-2.6992 -2.6175 -2.5229 -2.4089 -2.2987 -2.1692
-2.0874 -2.0195 -1.9588 -1.9542 -1.9598 -1.9919
-2.0663 -2.1444 -2.2179 -2.2988 -2.4017 -2.5091
-2.6304 -2.7737 -2.9124 -3.0842 -3.2707 -3.4122
-3.5234 -3.6198 -3.7154 -3.8228 -3.9340 -4.0250
-4.0452 -3.9855 -3.8541 -3.6483 -3.4058 -3.1412
-2.8730 -2.6737 -2.5019 -2.2731 -2.1629 -2.0205
-1.7486 -1.6632 -1.5566 -1.4583 -1.4298 -1.3371
-1.3830 -1.4776 -1.5741 -1.6761 -1.7707 -1.8975
-1.9765 -2.0472 -2.0693 -2.0279 -2.0096 -2.0270
-2.0518 -2.0546 -2.0757 -2.1207 -2.1391 -2.1345
-2.0978 -2.0491 -2.0473 -2.0326 -1.9756 -1.9618
-1.9664 -1.9885 -2.0216 -1.9738 -1.9711 -2.0556
-2.1667 -2.3247 -2.4984 -2.6876 -2.8704 -2.9816
-2.9963 -2.9697 -2.9090 -2.8061 -2.7143 -2.6325
-2.5930 -2.5297 -2.4249 -2.3413 -2.3459 -2.3818
-2.3165 -2.1062 -1.6992 -1.5486 -1.6000 -1.4218
-1.1526 -0.8798 -0.8275 -0.8642 -0.7622 -0.6052
-0.3939 -0.2882 -0.2386 -0.1422 0.0011 0.1830
0.2620 0.2795 0.2510 0.1867 0.1692 0.1187
0.0810 0.0415 0.0195 0.0562 -0.0393 -0.1257
0.0433 0.2923 0.5183 0.7672 0.9868 1.1889
1.3946 1.6289 1.9026 2.1626 2.2618 2.3482
2.6375 2.8507 3.0684 3.4239 3.6793 3.8501
3.8777 3.8924 3.9852 3.8740 3.8235 3.7169
3.5019 3.4496 3.2521 3.5111 3.4845 3.1335
3.6535 3.3072 3.0656 3.5249 3.2373 3.2566
2.9663 2.7164 2.9130 2.6880 2.7789 2.6797
2.6209 2.8910 2.8257 2.8625 2.8395 2.8588
3.0177 2.9837 2.9020 2.7577 2.7311 2.7844
2.7347 2.6952 2.6227 2.5685 2.6272 2.5271
2.3406 2.4545 2.5868 2.6134 2.6107 2.6566
2.8642 2.8624 2.8339 2.8670 2.7374 2.6805
2.7457 2.7117 2.4361 2.3406 2.3598 2.2864
2.3075 2.0521 1.7296 1.6865 1.5431 1.3805
1.3208 1.0269 0.9019 0.9552 0.6236 0.5418
0.5831 0.2791 0.4297 0.6787 0.4912 0.4426
0.5546 0.7457 0.8743 0.7714 0.7282 0.7337
0.6823 0.5353 0.2965 0.1632 0.1237 0.0824
0.1439 0.1825 0.1871 0.2229 0.3277 0.5435
0.4048 0.2367 0.2615 0.2394 0.3919 0.2348
-0.0775 0.0263 0.1751 0.0897 0.0244 0.2807
0.4580 0.3772 0.4305 0.4608 0.4534 0.5177
0.4369 0.3469 0.3588 0.3597 0.3184 0.2100
0.0676 -0.0032 -0.0500 -0.1437 -0.1970 -0.3201
-0.4010 -0.4258 -0.5930 -0.7703 -1.0587 -1.0202
-0.9007 -1.1745 -1.2094 -1.4097 -1.3739 -1.1258
-1.4547 -1.4556 -1.4033 -1.4804 -1.4318 -1.4722
-1.4051 -1.4648 -1.3629 -1.2324 -1.3068 -1.1626
-1.0561 -0.9752 -0.8861 -0.8898 -0.7989 -0.6877
-0.5389 -0.3570 -0.2633 -0.1577 -0.0043 0.1078
0.1960 0.2401 0.2419 0.2989 0.2732 0.1510
-0.0024 -0.1402 -0.2220 -0.4296 -0.7098 -0.9248
-0.9698 -1.2895 -1.5375 -1.4457 -2.0391 -2.2899
-1.9803 -2.1567 -2.3120 -2.3340 -2.2844 -2.3258
-2.3680 -2.2073 -2.1604 -2.0392 -1.8665 -1.8389
-1.7287 -1.5652 -1.4632 -1.3318 -1.2051 -1.1279
-0.9736 -0.7669 -0.6677 -0.6273 -0.5317 -0.3949
-0.3563 -0.3765 -0.3838 -0.4399 -0.4923 -0.5759
-0.6769 -0.7375 -0.7761 -0.7945 -0.8037 -0.8138
-0.7734 -0.7311 -0.6723 -0.6448 -0.6650 -0.4693
-0.6439 -0.7854 -0.3922 -0.6228 -0.8938 -0.7110
-0.6246 -0.5667 -0.6053 -0.3509 0.0111 0.1158
0.3105 0.5779 0.8286 1.0427 1.2457 1.4359
1.6086 1.7822 1.9080 2.0366 2.1322 2.1983
2.2792 2.3122 2.2617 2.1928 2.1395 2.1018
2.0467 1.9484 1.8519 1.7031 1.5405 1.3448
1.1005 0.8929 0.6871 0.4951 0.3637 0.2902
0.2865 0.2893 0.3398 0.3949 0.4124 0.4859
0.4445 0.6595 0.7467 0.6209 1.0232 1.0352
0.9415 1.1408 1.2033 1.2795 1.1803 1.1766
1.2253 1.2418 1.2859 1.2813 1.3401 1.3383
1.2749 1.2675 1.2786 1.2280 1.2198 1.2436
1.2234 1.2326 1.2455 1.2418 1.2354 1.2050
1.1371 1.0305 0.9193 0.8036 0.6529 0.4857
0.3029 0.1035 -0.0958 -0.3108 -0.5570 -0.8059
-1.0200 -1.1945 -1.3489 -1.4821 -1.6079 -1.7154
-1.8192 -1.9442 -2.0204 -2.1086 -2.1004 -2.1169
-2.0958 -2.0030 -2.2170 -1.8459 -1.3149 -1.5106
-1.5216 -1.2837 -1.0853 -1.1184 -1.1909 -1.0045
-1.0137 -1.1377 -1.1450 -1.0835 -1.0376 -1.1156
-1.0559 -0.9071 -0.9034 -0.8759 -0.8107 -0.8428
-0.9384 -1.0449 -1.1763 -1.3003 -1.4244 -1.5557
-1.6485 -1.7404 -1.8525 -1.9287 -1.9609 -1.9756
-2.0013 -1.9976 -1.9636 -1.9572 -1.9388 -1.9177
-1.8902 -1.8268 -1.7414 -1.6137 -1.4171 -1.2600
-0.9862 -0.7621 -0.4498 -0.1337 -0.1016 0.5901
0.5764 0.6526 1.4867 1.0853 1.3912 1.7228
1.5795 1.8872 1.7439 1.8983 1.9506 1.9681
2.0140 1.8569 2.0764 1.9745 1.7411 1.7944
1.6465 1.4527 1.3268 1.1504 0.9942 0.8381
0.7738 0.7921 0.7471 0.7269 0.7820 0.8123
0.8757 0.9667 1.0374 1.1862 1.2983 1.4204
1.5895 1.7309 1.9441 2.1296 2.3464 2.5586
2.6946 2.8443 2.9656 3.0942 3.1916 3.2237
3.1998 3.1429 3.0124 2.8342 2.6707 2.5145
2.4006 2.2554 2.1645 2.0579 1.9697 1.8200
1.6822 1.6123 1.4369 1.7621 1.5131 0.8746
1.2540 1.3211 1.0777 1.0731 1.0923 1.0822
0.9509 1.0648 1.0868 1.0528 1.2081 1.1750
1.1961 1.2880 1.1777 1.0886 1.0133 0.8516
0.6761 0.5025 0.3307 0.1497 -0.0478 -0.2104
-0.3785 -0.6054 -0.8286 -1.0721 -1.2972 -1.4735
-1.6508 -1.9044 -2.1782 -2.3123 -2.4960 -2.7266
-2.8672 -2.9857 -3.1372 -3.2319 -3.1676 -3.1896
-3.2071 -3.1042 -3.0592 -2.9756 -2.8387 -2.6973
-2.5273 -2.3739 -2.2398 -2.1424 -2.0818 -2.0441
-2.0313 -2.0046 -2.0028 -2.0561 -2.1103 -2.1498
-2.2288 -2.3602 -2.5320 -2.7331 -2.9545 -3.2118
-3.5030 -3.8061 -4.0836 -4.3417 -4.5953 -4.8203
-4.9820 -5.1088 -5.2448 -5.3265 -5.3311 -5.3210
-5.2558 -5.0960 -4.9049 -4.6624 -4.3510 -4.0230
-3.6941 -3.3735 -3.0474 -2.7140 -2.3943 -2.0810
-1.7751 -1.4821 -1.2184 -0.9750 -0.7508 -0.5836
-0.4495 -0.3641 -0.3053 -0.2695 -0.2695 -0.2796
-0.3669 -0.4762 -0.5956 -0.7233 -0.8253 -0.9309
-1.0320 -1.1128 -1.1615 -1.1974 -1.2029 -1.1726
-1.1202 -1.0504 -0.9576 -0.8676 -0.7665 -0.6085
-0.4836 -0.3743 -0.2347 -0.0978 0.0676 0.2173
0.3597 0.5021 0.6252 0.7464 0.8318 0.9063
0.9568 0.9834 0.9871 0.9650 0.9705 0.9292
0.8217 0.7289 0.5783 0.4019 0.2338 0.0197
-0.1539 -0.3808 -0.5655 -0.6463 -0.9522 -1.1543
-1.2811 -1.5264 -1.5301 -1.7129 -1.8259 -1.7947
-1.9646 -1.9316 -1.9931 -1.9848 -1.8562 -1.8902
-1.7276 -1.5935 -1.5954 -1.4906 -1.3133 -1.2481
-1.2591 -1.1305 -0.9900 -0.9983 -1.0442 -1.0075
-1.0589 -1.1636 -1.1986 -1.3327 -1.4154 -1.4787
-1.6294 -1.6965 -1.7792 -1.8701 -1.9216 -1.9914
-2.0364 -2.0759 -2.1117 -2.1016 -2.1347 -2.1898
-2.2018 -2.2312 -2.2404 -2.2606 -2.2588 -2.2073
-2.1963 -2.1458 -2.0631 -2.0061 -1.9428 -1.8638
-1.8197 -1.8224 -1.7930 -1.8142 -1.8169 -1.8528
-1.8978 -1.9750 -2.0071 -1.8473 -2.4178 -2.4940
-1.8914 -2.3039 -2.4655 -2.3847 -2.3663 -2.3443
-2.5106 -2.2818 -2.3149 -2.3480 -2.2736 -2.3967
-2.2359 -2.1872 -2.2525 -2.1459 -2.0908 -2.0991
-2.0596 -2.0329 -2.0329 -1.9576 -1.8915 -1.7840
-1.6453 -1.5635 -1.4643 -1.4175 -1.3394 -1.2962
-1.3348 -1.2916 -1.2880 -1.2971 -1.2723 -1.2742
-1.2751 -1.2531 -1.2512 -1.1851 -1.1337 -1.1217
-1.0997 -1.0914 -1.0850 -1.2320 -0.8976 -1.0087
-1.1447 -0.7120 -1.0933 -0.8131 -0.8094 -0.7855
-0.1820 -0.6496 -0.3317 0.0118 -0.1609 0.1211
0.1037 0.1469 0.3297 0.2552 0.2093 0.3278
0.2938 0.2800 0.3324 0.3250 0.3939 0.4215
0.4693 0.5317 0.5078 0.5565 0.6107 0.5813
0.6943 0.8440 0.8257 0.8431 0.9901 1.1536
1.2657 1.3401 1.4926 1.6588 1.7847 1.8968
1.9822 2.0768 2.1613 2.1328 2.3992 2.4406
1.9215 2.3450 2.5637 1.9647 2.0804 2.1953
1.9674 1.7047 1.6285 1.6716 1.4456 1.4484
1.5090 1.3446 1.3446 1.3887 1.3400 1.3418
1.3427 1.3648 1.4226 1.4658 1.5071 1.5246
1.5806 1.6027 1.5907 1.5751 1.5567 1.5595
1.5420 1.4979 1.4244 1.4272 1.4419 1.4630
1.4419 1.3950 1.4317 1.3628 1.3757 1.2820
1.2406 1.2213 1.1377 1.2094 1.0744 1.3049
1.1102 1.4317 1.1882 1.1763 2.1354 0.6187
1.9948 2.1390 0.2282 2.4155 1.8992 0.8851
1.8698 1.5869 1.6190 1.5520 1.4528 1.9341
1.5419 1.4472 1.9947 1.5565 1.5161 1.7908
1.4647 1.5078 1.5078 1.3636 1.4444 1.4490
1.4518 1.4913 1.5822 1.7062 1.7356 1.8137
1.9478 2.0415 2.0507 2.0029 2.1435 2.1233
2.3520 2.3327 2.5219 2.6175 2.6423 3.0667
2.6809 3.5288 2.4797 4.0735 4.8479 1.2533
4.5429 5.2769 3.5508 4.3059 4.2600 5.0436
4.5181 4.5043 5.0307 4.9985 4.8424 5.0307
5.0968 4.9636 5.2658 5.1133 5.1914 5.2888
5.2548 5.3568 5.3072 5.3531 5.3862 5.3944
5.4670 5.5543 5.6379 5.6948 5.7958 5.9272
5.9575 6.0246 6.0907 6.0962 6.1118 6.1614
6.0769 6.0438 6.0521 5.8564 6.0328 5.8702
5.7894 5.5891 5.5974 5.4145 4.7191 5.9161
5.5119 4.6484 4.4242 4.4591 4.5344 3.0086
4.1302 4.0981 2.9801 3.4366 3.0545 2.9580
2.7789 2.8083 2.5997 2.3609 2.3912 2.2268
2.1569 2.0109 2.1147 2.0853 1.9622 2.0283
2.0393 2.0044 1.9557 1.8593 1.7784 1.7178
1.5809 1.4964 1.3760 1.2300 1.1399 0.9158
0.7192 0.6154 0.3508 0.1395 -0.0883 -0.4062
-0.4925 -0.9629 -1.0226 -1.3937 -1.6161 -1.7171
-2.1875 -1.5031 -2.6633 -2.1030 -3.5269 -3.0593
0.9598 -5.1336 -5.0978 -0.8601 -3.0997 -3.1255
-3.5214 -2.8940 -3.0281 -3.5637 -2.7396 -3.3147
-3.2853 -3.0290 -3.3120 -3.3919 -3.3322 -3.3056
-3.4369 -3.6767 -3.2211 -3.8219 -3.8412 -3.2128
-4.1039 -3.3304 -3.2101 -3.6960 -3.6281 -3.2679
-2.9198 -3.5298 -3.1256 -3.1651 -2.7618 -2.7995
-3.3001 -2.5753 -2.7591 -2.6075 -2.6598 -2.1996
-1.9874 -2.6856 -1.3949 -2.0389 -2.1436 -1.4169
-2.1886 -1.2645 -1.8754 -2.1675 -1.2599 -1.1202
-1.6384 -2.1749 -1.2746 -1.2222 -1.6604 -1.7036
-1.4005 -1.3656 -1.5833 -1.3867 -1.4960 -1.4547
-1.4529 -1.5668 -1.5622 -1.2498 -1.3711 -1.7524
-1.3996 -1.2159 -1.5034 -1.6743 -1.5622 -1.5319
-1.5935 -1.7570 -1.8084 -1.7028 -1.8011 -1.8562
-1.7056 -1.6578 -1.9058 -1.7230 -1.5999 -1.8884
-1.7037 -1.6358 -1.8324 -1.9692 -1.7469 -1.8636
-1.8039 -1.3538 -1.9031 -1.5540 -1.5393 -1.5540
-0.8393 -1.4833 -1.0231 -0.8586 -1.0580 -0.7631
-0.8357 -0.5610 -0.8173 -0.7631 -0.7429 -0.3121
-0.7053 -0.7191 -0.3727 -1.0975 -0.0760 -1.3336
-1.5578 -0.1119 -1.9684 -0.5960 -0.8679 -2.0658
-0.6254 -2.6207 -1.0875 -1.5238 -2.1908 -2.1834
-2.3764 -1.1399 -3.3097 -1.4366 -3.9803 -1.0205
-2.1017 -4.0474 0.0249 -5.5384 -0.0522 -2.3286
-4.8742 0.2197 -3.7645 -2.2625 -2.1780 -2.9809
-1.4854 -2.3278 -2.8100 -2.1532 -1.5543 -2.9267
-2.6732 -1.9153 -3.0599 -2.4794 -3.1821 -2.9708
-2.6732 -3.6378 -2.7182 -3.2364 -2.8808 -3.6938
-3.2171 -2.4647 -3.7628 -2.5474 -2.9975 -3.3356
-2.7964 -2.5198 -2.8469 -3.0499 -1.9549 -2.0615
-2.4041 -1.9439 -1.0105 -1.4074 -1.6040 -0.9205
-0.7846 -0.6045 -0.9077 -0.4879 0.1258 -0.2977
-0.4594 0.0192 0.0780 -0.1149 -0.3832 -0.1085
0.0385 -0.8012 -0.0267 -0.2243 -0.6349 -0.2932
-1.0713 -0.2693 -0.6882 -0.9923 -0.1140 -0.6313
-0.5091 -0.3189 -0.1977 -0.0470 -0.0874 -0.0296
0.1202 0.4343 0.3967 0.6190 0.5400 0.8413
0.9341 0.8578 1.4145 -0.1297 1.7893 2.6528
-0.2510 2.0043 2.0162 0.5124 1.3098 1.5063
1.0406 0.4572 1.1334 0.8017 1.2271 0.6198
0.5913 1.6744 -0.0150 0.1403 0.8789 0.0080
-0.5763 0.2147 0.3571 -0.2327 -0.0279 0.2486
0.7980 0.0934 0.3570 -0.0012 0.1623 1.0203
-0.3797 0.7529 0.8659 0.4103 0.7336 0.8659
0.8815 0.5857 0.8209 0.0410 