Archivo de aceleración parte de la Red Nacional de Acelerógrafos (RENAC) Ecuador
          
Evento: 201604162358
Fecha del evento UTM (aammdd):                  2016    4   16
Hora del registro UTM (hhmmss): 23   59 20.00
Estación:                                      AMNT0
Componente:                                        Z
Frecuencia de muestreo (Hz):            1.000000e+02
Unidades: cm/s^2
_____________________________________________
-10.1679 -9.2969 -0.0363 14.3038 19.9680 14.4707
6.7198 -0.5790 -2.6053 0.3452 3.4842 8.0684
13.6531 19.5682 20.5866 10.8178 -1.2639 0.9290
13.0377 19.5502 13.4715 4.2994 -1.6367 -3.9716
-2.0122 5.7737 12.6797 10.3018 0.4088 -8.5181
-13.9307 -14.9608 -12.6923 -11.3278 -13.1143 -18.0857
-13.8017 6.3320 25.4917 29.7079 28.3041 27.2905
22.2359 13.1908 8.4469 6.8035 1.3477 -4.3399
-1.9390 9.1279 18.5287 12.3398 -3.0748 -19.6075
-29.3892 -24.8677 -9.2078 1.8351 5.1557 9.2990
11.6966 10.6683 11.2752 14.0492 16.4351 12.6931
-2.2383 -16.3911 -23.0602 -20.9859 -16.5391 -15.7983
-15.7989 -13.5166 -15.2875 -15.5609 -10.4184 -4.9265
-4.3769 -2.5550 4.7258 14.2386 20.2128 15.6418
3.4057 -10.5217 -16.6457 -15.3631 -12.2250 -7.2554
-3.0947 -1.5837 -2.4521 -0.3018 8.0623 21.2834
32.8864 33.6677 28.1302 15.1327 -1.2136 -11.0082
-13.7828 -17.6851 -24.0373 -27.4353 -26.6693 -22.0746
-11.1943 2.3627 9.9890 10.5869 13.3585 16.5836
15.7312 9.5894 0.9123 -12.8875 -23.2839 -25.0713
-19.3618 -9.7287 -3.4672 -3.1554 -11.1307 -21.1861
-28.5747 -29.4332 -19.5005 -0.1073 18.1090 29.0354
26.3890 17.3529 12.3250 12.2173 12.4006 7.7252
1.1467 -5.8985 -11.8124 -8.1064 3.9069 18.7084
27.5352 27.3179 17.1506 2.5154 -11.0401 -22.8718
-31.6507 -29.7054 -12.3323 10.3098 29.1942 36.7055
30.7475 19.8621 12.6458 9.8916 10.4502 8.3924
2.6856 1.9319 5.3005 10.6726 15.9580 12.2856
9.3234 9.4456 13.4829 19.7372 17.9399 10.0876
3.3936 0.8132 7.3718 20.5215 29.5213 32.8368
32.7735 25.4677 12.4183 -2.5020 -16.7047 -33.4115
-47.6102 -52.8404 -49.1239 -43.1694 -33.5222 -18.4804
-7.6968 2.5799 8.5052 10.4247 9.3168 1.8871
-13.1353 -26.9795 -29.1724 -15.8679 1.2015 11.0919
9.8513 -0.5502 -16.3229 -28.9455 -26.9747 -16.4886
-7.3942 0.2684 5.2077 5.2590 8.9050 14.7153
19.3482 18.3904 7.7292 -7.6929 -21.2193 -24.6405
-18.1034 -9.6562 -5.8083 -7.2496 -10.1491 -8.9710
-3.8153 0.8320 4.0617 2.4123 -1.2661 -6.6379
-12.2099 -12.5356 -7.0758 3.9431 13.6764 20.7033
17.1633 2.7989 -12.6095 -24.5033 -31.1565 -31.2057
-27.8206 -25.6640 -22.0157 -14.3582 -2.6447 5.4717
3.7807 -1.5254 -6.7838 -9.5938 -9.5812 -14.4113
-22.4137 -25.2258 -22.4209 -13.8197 -0.9948 13.1911
27.7278 37.1958 33.9775 24.3090 12.1084 0.8587
-2.7348 -2.7807 0.3076 6.7624 11.6669 12.9803
9.4809 0.0603 -12.3883 -20.8856 -22.4152 -20.2403
-13.1159 -2.9659 6.0228 15.2105 20.9680 19.8472
10.5248 -12.4766 -32.3830 -36.1262 -33.5239 -25.6212
-12.7032 7.9494 28.6861 40.3425 43.4299 37.9194
30.0425 22.4222 16.4324 9.3133 5.4801 11.3147
19.3579 20.6567 17.5723 10.4992 -3.5801 -16.7490
-25.5804 -27.0127 -17.5561 -5.1114 6.4613 16.7457
26.9827 33.3246 32.3002 25.4306 15.6534 7.5595
0.1748 -6.2875 -10.2714 -7.8924 -1.1395 4.3398
6.7224 7.0702 3.0884 -3.8769 -10.4770 -17.6792
-22.6632 -23.7795 -22.7356 -20.8773 -19.8295 -22.1824
-22.9370 -18.8321 -13.7520 -7.9239 0.1583 10.2867
17.3132 16.5926 11.2435 3.4246 -4.5745 -9.3959
-7.6409 -1.6964 5.5781 10.6603 9.1920 2.8933
-2.4687 -5.4180 -11.0560 -17.2434 -18.2615 -9.2320
5.2702 18.2215 26.6726 26.7746 18.7707 5.1780
-6.2989 -12.6274 -11.8389 -4.8210 -1.8068 -4.4704
-11.1818 -19.2592 -29.3780 -37.1652 -35.9054 -26.7436
-14.4178 -2.5365 3.7448 6.3735 16.0357 25.4491
28.4744 24.2596 13.9545 -0.2479 -12.5199 -16.4429
-12.5244 -9.0745 -7.1709 -5.3544 -1.4473 -1.9891
-6.8248 -11.0354 -12.1541 -11.6756 -12.0280 -11.9025
-6.5238 -1.9558 -1.0679 0.3422 2.3259 6.5554
13.8818 23.2264 27.5120 21.7389 13.0215 9.4608
8.2494 9.9528 13.1308 19.9881 29.6788 33.7783
26.7427 16.3649 9.3179 8.1684 9.0781 13.4573
15.1628 16.6699 12.5134 12.7058 18.2319 18.3162
13.8094 6.8663 1.0775 -5.3142 -5.8398 -4.2496
-5.4625 -7.8118 -6.5431 -4.4801 -4.3174 -1.9606
-1.6089 -5.9974 -7.5084 -5.8122 -0.4773 4.9417
3.5763 -0.7813 -1.6575 3.1855 11.1686 16.8673
22.9055 23.7655 19.7545 16.5198 7.2072 -0.2870
-1.7404 1.5355 3.2089 2.0095 0.8323 3.9881
9.0396 15.4263 21.7595 28.9824 29.9717 17.5805
2.1856 -6.4417 -9.2373 -10.4100 -9.4960 -6.6035
-3.8360 -4.9898 -11.7289 -18.5730 -20.7064 -22.1535
-23.9925 -19.0349 -7.5045 1.6982 6.6354 8.7572
5.1850 -2.7285 -3.5503 -5.0085 -8.3906 -3.8433
5.4230 2.2039 -4.9109 -4.9773 -5.0403 -9.4498
-15.3980 -18.8975 -20.8557 -17.7413 -14.5987 -13.3317
-4.9295 7.7255 12.9764 10.4590 7.6712 -0.7658
-12.9418 -21.0601 -21.7051 -19.6190 -15.1729 -4.6291
5.7526 13.5968 16.5893 16.5341 17.6401 15.2164
11.0170 11.5365 19.8009 26.7819 29.0633 30.4389
32.5946 34.7044 35.6919 34.3820 31.6023 26.1990
20.4276 16.5647 17.9943 21.8464 26.5964 31.6476
34.3817 34.2268 31.6608 27.9726 22.6247 18.4379
11.0884 5.1753 3.2114 1.7827 4.7287 5.9020
2.4583 -2.7229 -6.6564 -7.8276 -7.1940 -8.5513
-8.7959 -8.8995 -6.6057 -6.7558 -12.4749 -16.0242
-11.0603 -0.4057 8.4509 12.9157 12.2496 6.1586
-4.0466 -2.6602 -8.5126 -4.2405 3.2825 5.3857
-1.7141 -7.0908 -5.7419 -9.1120 -17.0624 -22.2332
-25.7255 -24.1355 -14.3641 -5.6134 -2.2835 -3.7996
-7.4371 -11.0588 -12.9122 -14.3536 -14.3929 -14.9020
-13.6923 -13.6980 -17.1459 -19.5928 -20.1210 -17.4350
-12.1958 -8.6900 -2.2466 3.4851 12.4759 22.1243
23.5407 16.9277 7.9316 2.5870 5.6714 16.3463
23.5599 26.2160 23.4296 17.9422 11.6795 5.6606
0.3662 0.3419 1.1685 5.3121 9.5560 14.4698
11.3497 0.2656 -2.1407 -10.2692 -19.7891 -26.4894
-28.3011 -25.8873 -21.0666 -18.1815 -18.6227 -23.4177
-33.4116 -39.5449 -40.5063 -41.5430 -46.2608 -50.8030
-47.9486 -40.3214 -35.4685 -39.0451 -47.9573 -56.4024
-63.4395 -66.8708 -68.5454 -63.3506 -47.9981 -23.4699
0.2230 22.6180 36.8578 48.6268 41.4156 35.0092
36.1582 7.7037 4.7958 -6.9201 -9.8439 -21.0906
-18.6918 -19.4020 -20.1151 -22.5743 -29.8353 -35.0153
-30.9110 -17.3696 3.3793 42.8071 32.4092 32.4452
22.8379 13.8198 -0.8144 -14.5815 -33.2703 -47.1367
-53.6572 -45.3409 -32.3986 -25.7998 -13.6069 -0.6884
4.1129 2.9021 0.1596 -3.3078 -1.8488 4.6066
8.1076 8.1658 5.9336 6.7878 11.4786 9.9893
4.8717 1.4178 -5.2636 -16.0367 -17.5879 -6.7647
0.5056 1.7987 1.1341 7.9341 14.9748 19.2898
21.8618 25.2703 28.8539 32.0727 34.2026 31.3379
28.5279 28.7371 32.9899 34.5324 42.7596 53.6294
62.9650 69.6632 72.7212 74.3357 78.1134 83.2956
85.1775 78.7972 64.3295 40.2821 14.6326 -7.1423
-18.8207 -22.6308 -24.1379 -20.3058 -6.3142 13.3629
31.2808 41.7193 48.1215 52.6718 52.1820 36.7535
20.6218 -3.3199 -16.5587 -29.1955 -32.2333 -51.0517
-27.3796 -39.1696 -57.7502 -36.9364 -28.2218 -42.2621
-34.1948 -26.6385 -29.6595 -21.0995 -14.6069 -6.9569
-26.4161 -31.1954 -20.4902 -26.7114 -38.5195 -28.8885
-18.9000 -0.7734 21.0000 43.7137 48.6876 50.5626
48.2508 52.2873 40.7812 20.7589 1.0857 3.6085
14.5181 23.5732 34.6896 58.6970 63.0373 63.7345
51.4964 34.3186 29.3757 24.0687 30.7927 23.9831
6.7484 -6.7228 -20.8354 -34.8303 -47.4824 -58.1564
-70.1403 -79.9820 -81.5539 -72.8078 -58.9113 -42.5473
-26.3096 -14.6694 -6.3422 -6.2687 -13.2361 -21.3862
-35.7818 -49.4142 -45.2856 -1.7190 27.6420 62.1614
77.9284 113.4368 118.5829 103.5152 82.0753 54.1974
90.8851 38.8119 27.5903 20.9660 22.5754 25.7831
29.4546 35.4528 37.8505 41.4175 43.4315 50.9494
54.1692 50.4731 39.2194 30.9364 28.3353 24.9124
15.3537 6.1624 -10.0125 -18.0089 -19.8053 -12.1397
-6.3093 -4.9559 -6.9498 -7.4396 -8.0961 -6.4143
-8.2570 -14.9819 -23.6464 -30.7045 -31.0227 -31.0134
-23.9178 -9.0821 2.9273 9.0841 8.0683 7.1036
7.4932 7.1844 12.3776 15.9954 11.8911 5.7719
-3.7277 -23.5606 -36.1229 -53.1128 -64.2998 -48.6411
-20.7665 10.4263 35.2871 52.6062 56.6312 54.7667
44.1134 29.5824 13.9687 7.7075 1.3680 -2.8008
-4.2467 -7.3241 -8.6817 -10.0802 -12.2548 -13.7495
-19.5899 -25.8535 -30.8838 -33.2739 -29.3221 -31.5483
-24.3320 4.9974 22.3970 28.2274 22.0380 6.0533
-11.4156 -32.8195 -52.9501 -61.5339 -62.3617 -57.6976
-48.7405 -37.5553 -23.7654 -17.2196 -16.6439 -21.5848
-25.9217 -28.6290 -26.3554 -24.7454 -23.2971 -27.9306
-32.8231 -32.1039 -13.0880 -13.5086 -12.4013 -13.8231
-10.8060 4.3739 4.8506 2.3737 1.8773 0.0701
-1.4883 -4.6757 -9.1113 -10.1117 -8.7749 0.7787
12.4742 22.9516 25.4354 24.3191 13.2176 6.1676
-0.9172 12.5939 27.8915 36.6013 46.3959 58.2403
47.1592 40.1017 49.2171 46.3218 30.1534 12.1263
-24.0374 -45.2015 -56.7510 -55.7017 -36.3202 -25.5556
-9.0153 -3.9016 -1.3824 2.2137 2.1633 4.2736
1.1100 10.4328 4.1116 -9.2486 -23.3053 -35.1824
-48.6962 -63.9181 -71.5999 -76.8514 -75.5719 -62.4630
-38.0557 -5.6065 26.3216 46.4790 61.0457 78.9547
94.0271 101.2884 95.0624 81.0047 75.8385 73.1263
70.2418 59.5140 40.9019 20.5884 2.8239 -8.4175
-9.4002 -12.7958 -9.8570 -5.9538 -1.1811 -1.0244
-3.1000 -20.1484 -33.1858 -45.2315 -46.3580 -49.2977
-32.1713 -8.4481 4.0773 -9.5134 93.5207 79.8059
83.9309 58.0898 -17.4035 0.8233 -49.1005 -89.4630
-92.9919 -72.5278 -72.0944 -58.4284 -38.7744 -18.1557
-4.7857 7.0019 13.1605 21.8676 -0.6262 -23.3432
-45.5717 -44.1309 -33.1621 -10.6375 8.2845 25.9374
29.3747 34.6358 22.2773 43.3546 71.3592 64.3242
67.3369 56.8672 54.8382 43.0458 43.8574 51.2586
47.8356 42.8035 28.3464 15.3651 9.9578 20.5385
32.6779 49.7269 73.1223 91.5562 94.1744 84.2579
75.8834 77.7677 70.2252 47.6525 24.2006 2.1754
-1.5633 0.0209 12.0841 17.3628 24.1310 31.7594
32.0418 20.2872 0.8853 -30.1087 -49.5503 -68.9867
-84.3599 -98.7681 -102.0797 -100.1500 -106.6255 -108.5177
-112.4128 -104.9597 -98.8966 -70.0516 -46.1660 -36.3318
-59.5316 51.6406 -21.9656 0.6164 41.7640 -35.4455
-21.8183 -65.3593 -52.2319 -48.0300 -37.3899 -31.8230
-23.3803 -18.1465 14.0320 42.6606 28.3253 -9.7920
-43.8504 -56.8134 -57.4770 -36.9157 -42.3328 -25.1281
50.1554 29.8053 40.1075 103.6549 121.8019 59.5066
28.5771 32.1735 -30.0158 -79.2808 -104.3567 -117.7418
-117.6193 -40.0913 -28.7443 0.0394 -17.3343 -82.2349
-113.3971 -51.8708 -79.1625 -113.6099 -83.3371 -71.5645
-8.0344 7.7744 47.8232 50.9754 81.3091 46.3311
70.2416 30.7994 15.3124 -36.1611 -136.9414 -162.0570
-161.2112 -63.2073 -55.7464 -23.1864 27.3086 30.1561
11.1490 15.8554 37.0975 35.0060 50.4366 62.0276
85.9504 102.4705 110.6034 80.2718 61.1382 47.7175
19.8867 4.7725 -8.0053 -8.3118 8.3257 27.5736
40.2280 42.5779 41.6346 29.2220 14.3732 -12.8081
-23.9348 -49.7869 -89.7205 -98.3844 -113.6559 -125.6395
-124.0607 -121.4530 -113.0304 -102.7048 -79.8575 -53.2036
-18.3192 10.1098 53.3795 84.7491 69.7000 33.9377
35.7926 53.9831 1.2739 -36.6799 -104.4211 -111.7172
-139.4922 -152.0067 -100.8697 -21.9916 11.4277 25.4677
60.7831 84.5684 86.2735 67.9630 78.7286 76.9070
55.2719 31.2249 4.1331 -31.0058 -57.4118 -72.7865
-61.7631 -35.9055 -10.8938 -0.1423 8.2602 14.6021
27.4826 38.4039 45.1175 42.2363 38.5615 46.3493
40.2772 31.9365 29.9429 31.6256 37.0334 37.2279
34.6391 29.4474 31.0214 32.5551 40.9291 40.6058
31.1558 21.4945 13.3093 5.1401 -8.8435 -12.4681
-2.5286 4.9720 5.0923 0.3913 -0.9140 -29.2902
-22.1853 -8.9314 -15.5951 -11.4488 -0.1183 19.7257
27.4300 43.8093 54.2922 57.9480 55.4231 45.5400
40.0580 45.9950 45.0180 42.1549 34.6432 27.8457
21.3678 18.1868 22.8025 23.7306 16.0860 1.5745
-16.4608 -35.6307 -43.7768 -19.0877 -6.2583 3.7284
5.2399 -9.7584 -5.6970 -3.1499 5.8075 13.7190
15.7447 24.3300 25.8064 26.6387 30.2097 44.0179
35.7006 46.1979 63.3141 74.0377 85.4939 91.9661
92.1111 73.2936 80.5297 65.1465 59.3674 26.7963
18.9845 -15.6198 -33.8211 -9.3331 -63.4210 -93.1760
-75.2548 -29.5475 -31.8593 -26.3539 -23.2050 -24.3984
20.2643 4.9502 -17.8440 -17.0462 -21.5079 -18.9221
-19.9679 -24.0893 -30.0071 -32.0622 -31.7210 -16.9216
-3.6726 2.5874 8.9393 -4.3575 -11.9397 -13.6361
-16.3288 11.4812 -2.5140 -21.4422 -19.6173 -23.7714
-19.6863 0.3200 19.9407 29.4979 41.8045 51.3319
49.4563 28.3861 12.1121 -7.7343 -13.4129 -16.5636
-23.2978 -25.1539 -24.1412 -15.6703 -14.2626 -20.2308
-19.2202 -29.8375 -22.0624 -2.4981 9.4945 8.4578
3.1472 -3.2836 2.7786 10.9406 8.5556 -6.7909
-15.9090 -39.5511 -47.7729 -53.9687 -53.8978 -49.1131
-48.5026 -43.6506 -34.9675 -30.5351 -21.1529 -7.7799
3.2597 12.6998 21.4411 29.4396 16.8923 87.1023
115.5007 37.1761 17.4002 -0.8182 33.5379 32.0515
-6.1054 14.3089 -8.6861 -8.3854 -12.4626 -10.5237
9.6907 23.4660 36.8909 9.9071 -0.5832 24.6537
16.9760 2.7272 -22.9434 -31.7742 -26.8586 -19.4361
-5.9524 3.5358 7.2889 7.1676 -1.1934 -10.8010
-20.7631 -23.0428 -23.4846 -14.9786 -6.5629 -3.7465
1.7135 10.0512 20.6676 23.7787 16.2490 8.0900
4.1910 -8.2846 -22.7669 -32.6873 -30.8363 -34.6995
-43.1524 0.1710 13.9811 18.6538 29.3711 39.7735
45.5391 42.4506 58.0924 30.5351 17.9110 -4.8701
-21.4253 -2.0489 -7.6756 -27.0460 -40.8848 -69.1334
-63.7162 -41.4983 -45.5612 -21.6783 -13.7921 -11.2108
0.1965 11.9490 16.2451 22.5273 18.7688 13.5011
2.2333 -14.9519 -35.7183 -50.2004 -51.9068 -59.8074
-64.5162 -69.1445 -67.2188 -56.0855 -45.1602 -38.8666
-30.3519 -27.4317 -19.6118 -21.4124 -24.8624 -30.1226
-26.8494 -32.7852 -26.3953 -20.6326 -21.0856 -23.1506
-21.6277 -21.6367 -34.0816 -47.8151 -53.4637 -58.4543
-60.0247 -64.7212 -63.8664 -64.4019 -64.2749 -65.4305
-65.7886 -63.2811 -60.5098 -61.6222 -60.6464 -54.7565
-43.2342 -35.3375 -33.2934 -29.5874 -29.4377 -28.2842
-27.9216 -25.3313 -21.5632 -18.9488 -29.3089 -36.6834
-45.6117 -53.1675 -55.8250 -63.6149 -70.0295 -75.3848
-66.7341 -46.4378 -35.5017 -16.7349 0.1895 18.8641
37.6492 52.7973 62.1492 67.4391 70.9400 68.8075
65.5829 62.8623 61.6083 67.5228 72.6803 76.3119
77.7118 76.5505 78.3880 75.8007 67.7545 59.7044
48.4051 37.8875 30.2930 28.2445 25.9585 27.2167
26.4117 27.0084 22.8525 14.4044 5.8720 -0.1434
-6.4986 -4.7168 -3.0468 1.9841 9.0941 17.6052
20.3384 23.2724 19.6493 11.7297 3.9633 9.4020
16.7366 14.2399 5.7026 2.8488 9.3228 -6.7822
-11.7107 -21.2634 -23.4419 -22.9383 -17.7669 -14.1018
0.3788 9.8459 19.5487 33.2786 41.8623 48.1743
57.9682 61.8072 57.9781 52.6988 38.8326 33.9458
32.3028 33.2810 27.6606 18.7442 18.2001 3.8885
-9.1120 -15.7487 -20.2042 -19.7273 -14.3509 -7.9277
9.8435 24.7866 39.9987 45.6833 51.6320 47.8636
36.8921 21.8358 11.1591 -2.8425 -19.8897 -24.1119
-29.8827 -26.8874 -30.4172 -29.1047 -26.0875 -17.5263
-5.9827 13.4636 29.8646 42.9686 51.1448 55.9190
55.2557 52.8614 46.4270 37.4449 22.2518 16.4687
10.4161 3.0801 -4.9703 0.3073 0.6666 -9.0317
-6.1208 0.6660 2.9741 -3.3414 -9.5086 -15.1521
-18.4172 -23.5849 -15.0948 -8.6763 -9.0251 -7.5645
-5.5793 -3.7499 -8.1757 -11.5938 -15.9208 -21.1624
-25.9876 -30.3206 -33.5518 -36.9090 -35.4896 -34.1569
-31.1341 -32.4529 -36.1523 -39.1524 -42.1029 -43.4545
-44.7154 -42.5987 -38.0856 -35.3140 -33.0737 -31.5297
-31.4781 -30.9963 -31.5516 -35.2450 -43.0979 -47.5368
-47.5924 -45.8392 -45.2449 -46.9687 -49.4560 -52.5425
-51.1603 -48.8005 -44.7571 -39.8911 -32.2120 -29.1171
-28.3937 -27.0784 -27.5101 -26.4106 -22.7367 -16.7262
-9.5549 -1.1678 6.3484 12.5000 17.2202 16.3477
7.9215 -1.2236 -7.4299 -7.7387 -6.3631 -1.5162
2.6715 8.7358 11.3408 10.7423 6.6413 -0.0674
-6.6651 -11.9637 -13.9936 -7.9747 -0.4393 8.4440
15.6069 17.5272 17.4078 18.4280 16.6715 9.9487
-0.3085 -11.3055 -21.3168 -26.3359 -27.2619 -26.0217
-21.4530 -17.9223 -11.3865 -0.2337 13.4394 18.1218
15.2653 9.0533 3.3015 1.5516 -3.0912 -5.1734
-19.2304 -19.5633 -16.4924 -11.6639 -10.8286 -9.3308
-10.6476 -12.0001 -9.2522 -6.1924 -3.9214 -1.0109
1.3435 3.0367 2.7477 1.7118 1.6500 -8.3637
-15.9195 -28.1081 3.6304 10.0480 33.8990 -1.7003
-17.5409 -6.6898 -9.2666 -2.8853 -2.4792 4.0521
5.0198 9.3570 12.8094 17.8006 15.3618 15.0362
13.9643 17.5725 17.9729 19.5766 18.4264 16.0399
15.2385 17.0685 18.2319 22.5355 25.7027 29.3018
25.7483 18.7082 10.6062 6.5325 2.8665 -0.1978
-1.6590 2.9856 7.1583 10.6341 17.0829 21.2772
13.7788 11.1185 6.6499 2.1554 -3.1720 -3.7102
-4.0374 -1.6527 -1.3786 -1.4561 1.6451 8.0564
11.9701 13.1602 10.6320 7.7451 7.2162 6.3005
10.8364 14.7276 18.6596 20.8210 23.6694 24.8517
23.1928 20.8354 17.9749 17.0018 14.6525 14.8935
16.7107 17.7915 18.8723 18.7550 18.7562 18.7286
17.7654 16.6512 14.7257 13.5434 12.4761 11.9781
12.2639 11.2409 9.2704 6.9965 6.2266 5.7658
7.9543 7.4653 3.1566 -6.9519 -10.7999 -13.9371
-14.9786 -12.1227 -9.8418 -4.3703 2.1829 7.6805
12.7756 17.5717 23.0465 26.6700 27.2271 28.8605
30.9871 32.4320 31.8710 31.7669 29.9725 27.7547
25.5609 23.1234 21.6793 23.4868 26.7846 28.4691
30.0941 34.2506 38.3327 40.4584 42.0213 44.0704
44.4666 45.8953 45.4100 42.9812 39.9409 33.6848
24.3362 14.5254 3.6086 -3.6455 -5.2183 -3.6188
-1.0666 5.0901 11.1136 16.8504 25.0074 31.0735
33.5380 33.1553 31.4354 28.1275 24.2747 20.8295
18.9797 16.9567 14.9597 11.2228 5.6820 1.1686
-2.1550 -5.3429 -8.6548 -10.9921 -11.9607 -12.0519
-10.5167 -8.1818 -6.4316 -6.8224 -10.4572 -16.5770
-22.3466 -25.1662 -25.6864 -25.2329 -24.1061 -23.2152
-21.3966 -22.8220 -25.4532 -29.4104 -32.1580 -32.6352
-32.1391 -29.2955 -26.4809 -23.3482 -22.3307 -25.7612
-32.2538 -36.1474 -37.6946 -37.0580 -34.2024 -30.3505
-23.5163 -14.7996 -10.4765 -8.7680 -10.9018 -13.1514
-9.2038 -6.4785 -3.7068 -2.5627 -4.3765 -8.1851
-8.4421 -5.5540 -1.5626 2.7695 7.1233 11.7888
14.1624 16.4424 15.4444 7.9970 6.5494 6.3687
7.1308 3.9945 -1.4551 -2.7575 -3.1150 -4.7799
-5.6219 -3.8374 -1.4617 0.3131 1.7352 1.0625
-2.6906 -7.7950 -13.1485 -13.3226 -13.3121 -10.5534
-9.0751 -4.5080 0.6747 5.7482 10.9087 15.3369
21.2835 22.3821 21.6839 18.8118 12.8594 9.6049
5.9538 3.8671 0.7137 -0.2188 -1.7526 -2.9424
-2.8836 -1.8826 -0.7801 -3.1153 -7.4060 -10.9439
-13.2239 -13.0672 -10.8638 -7.8001 -2.6240 2.6635
6.9056 9.1594 9.7039 8.3481 7.9144 8.3214
10.7370 15.1970 18.0776 20.8579 23.6754 24.7617
25.4226 25.0519 22.0624 19.3235 14.7362 12.9359
12.2720 8.7581 11.4559 15.1961 14.7221 17.1927
18.1075 16.4477 13.5863 10.0857 6.3100 2.9735
-0.5500 -2.6381 -3.3669 -3.6872 -1.8839 -0.3807
0.0572 2.0412 1.4331 -0.0322 -2.3215 -7.5261
-10.2942 -12.7134 -14.2003 -15.9337 -17.4885 -18.0360
-14.3060 -8.2993 -0.5149 6.4835 13.6658 18.5823
21.2957 23.9638 25.4699 25.3784 24.4053 21.6511
17.2650 15.3059 13.4272 12.5315 11.4771 11.4738
10.7183 10.1432 6.5324 2.9110 -0.9531 -2.6817
-2.8609 -0.4915 1.6873 6.2847 10.3233 14.3604
20.0170 23.0096 23.9268 23.0951 20.9964 22.2955
24.0430 21.7834 15.1470 4.8950 2.5436 -8.0794
-11.2637 -8.7217 -9.2341 -10.5004 -4.9392 -4.3854
-1.2836 3.9306 7.1341 11.4963 12.0089 12.7101
11.1388 4.5060 -0.1047 -7.6238 -12.8498 -16.7460
-18.2654 -14.2034 -9.4745 -5.8964 -3.2698 0.6781
3.1478 1.3754 -0.0539 -0.9706 -1.7708 -4.9401
-8.8493 -12.4185 -9.6895 -2.0860 1.8322 5.9668
5.8122 7.0600 10.7978 12.2277 13.8155 18.0389
16.3302 15.3868 11.7390 3.8870 -1.4086 -3.3347
-3.3476 -1.0676 4.6503 9.8856 13.0885 15.2475
17.1817 18.5150 18.7722 19.6498 19.3833 18.8911
16.8173 13.2455 6.8981 2.6915 1.2261 1.2739
3.5652 6.7063 8.9536 11.2401 10.9277 11.2116
11.8494 10.4060 9.3669 7.2775 3.8219 -0.1951
-3.7948 -6.5628 -7.6185 -7.5224 -5.5660 -4.5452
-3.1381 -4.1676 -6.0409 -8.6165 -11.7672 -15.1274
-19.2815 -21.1422 -20.5893 -18.6953 -14.3557 -11.1867
-7.7851 -4.7502 -2.8362 -2.0660 -2.0240 -2.6102
-2.5633 -2.5189 -3.6649 -4.6230 -5.6285 -6.6658
-7.9166 -8.6874 -9.8691 -10.6840 -12.7881 -14.5263
-15.3030 -14.8156 -14.8828 -14.6913 -16.2002 -17.0172
-18.0071 -16.8020 -15.5660 -12.9099 -11.7889 -10.9986
-13.6987 -13.8614 -15.8451 -13.4262 -13.8170 -10.7459
-12.4762 -7.6411 -6.5014 8.4744 7.0997 11.9133
15.2369 17.2188 -5.9437 10.8222 33.0068 6.6999
7.3825 -4.2359 -5.5379 -14.0671 -15.7083 -17.6392
-15.3172 -14.6203 -10.4391 -5.0928 -5.1949 -6.7740
-4.6183 -7.5454 -5.7285 -4.9493 -1.3853 2.0694
7.4164 10.3104 13.2594 16.1310 17.3499 19.7265
23.3100 24.7883 26.0255 26.9065 27.2607 28.3484
30.3054 29.2167 29.0694 27.1481 27.3378 26.4592
25.5909 26.5322 28.6317 30.9447 33.2988 34.9016
34.1200 34.0378 31.5639 28.7674 24.3155 22.0821
21.8678 23.1131 23.7722 26.0186 28.9295 31.4006
30.8327 30.5458 27.1652 21.0525 13.2210 9.7704
9.1791 10.3599 10.7048 10.3836 8.1700 6.0542
5.0325 6.3528 7.0900 8.4254 7.5844 6.5287
4.9679 5.7468 11.6832 13.6189 16.9635 13.2653
14.1652 7.6999 2.4328 0.3146 0.5214 1.4441
1.7488 -0.2130 -3.2056 -7.3927 -10.7610 -12.8270
-14.1299 -13.6410 -11.6249 -8.0960 -6.4034 -4.7595
-3.3211 -2.3231 -3.4130 -4.3164 -6.9926 -9.4461
-12.2834 -14.6861 -16.7629 -19.5747 -22.5465 -26.0670
-28.2425 -29.6091 -27.8106 -25.2299 -22.4484 -19.8191
-18.9402 -19.0171 -19.7674 -19.0603 -16.7215 -14.2629
-13.7488 -14.5619 -18.6287 -21.3553 -21.9171 -21.2550
-21.0368 -21.7094 -21.8358 -21.1836 -19.5087 -14.5253
-10.0953 -5.3133 -1.5992 1.4164 1.7535 0.6889
-0.2269 -0.7786 -2.3385 -6.2138 -9.8531 -14.2465
-18.6698 -21.6711 -21.4051 -19.6618 -15.8325 -12.2246
-8.9857 -7.3117 -6.1315 -6.4788 -8.0750 -10.0335
-11.1381 -10.7497 -10.0786 -10.2989 -11.6526 -13.7257
-16.9719 -20.8865 -24.8698 -27.4196 -28.2636 -27.6672
-24.0864 -19.2347 -14.1228 -9.6767 -5.6678 -3.9234
-3.0820 -3.3258 -3.5785 -4.3487 -6.2315 -7.7413
-9.2469 -10.8644 -10.6450 -11.0994 -11.9594 -11.5064
-11.0982 -10.2809 -10.1077 -8.2729 -6.5608 -4.0374
-0.2330 1.5079 2.3060 1.6321 -0.3378 -1.6743
-3.3138 -3.4452 -1.9589 0.9280 4.2267 6.1527
5.5749 3.4033 0.6978 -2.5103 -5.6187 -7.0237
-8.4509 -7.1128 -4.1635 -2.0496 -0.3414 1.6891
2.4803 3.0194 3.2682 3.8457 3.9364 5.5509
8.2025 10.3804 12.9788 16.4912 19.7992 22.0872
23.1837 22.9781 22.6353 22.5675 22.4243 22.4666
23.5589 25.6236 27.6469 28.0536 27.9561 27.3456
26.6711 26.1366 25.6434 25.2223 23.7530 20.5540
17.0947 14.5798 13.0433 12.2278 11.7601 11.8304
11.4182 10.5514 8.6472 6.9289 5.0850 3.9333
3.9042 5.6487 7.5198 10.4328 15.4343 19.7631
22.9576 23.0972 22.0340 20.8670 18.3617 16.4188
13.6976 11.2979 9.0287 7.8779 9.2724 9.5666
14.6602 11.0880 15.0870 14.0914 14.3558 8.6961
5.1180 2.8837 -0.4691 -1.6207 -2.0881 0.2297
0.7282 4.3910 2.3887 2.1023 1.9240 1.3153
-0.5624 -4.1036 -7.1175 -11.9637 -17.1987 -20.6243
-23.6460 -26.0436 -25.1624 -23.6463 -21.4459 -17.8768
-14.9923 -12.7156 -12.2297 -11.9193 -11.9668 -12.1402
-10.0866 -6.2185 -13.7064 -10.4912 -10.7836 -9.8246
-10.6743 -14.7831 -15.4599 -11.6837 -9.3554 -7.3258
-7.8706 -12.4944 -16.6891 -18.4357 -18.4852 -17.6121
-18.6389 -18.6155 -16.2938 -13.6987 -11.8461 -10.1911
-7.8895 -8.4151 -9.3642 -11.7264 -14.2903 -16.1422
-16.8536 -15.5311 -14.3278 -12.6572 -11.2392 -8.0609
-4.5897 -0.5208 3.7096 7.0776 9.5815 10.9174
11.1996 10.6467 11.9299 12.1676 12.9381 13.8118
15.2198 15.2519 15.4233 13.7242 10.6617 6.6661
3.5250 -0.2474 -3.1955 -5.2566 -6.4776 -7.6179
-9.0464 -8.7639 -6.4200 -3.3837 -2.2518 -2.8797
-3.7652 -4.4117 -3.8948 -4.3109 -6.3786 -9.1826
-11.5596 -13.7237 -14.4194 -13.1005 -10.6843 -7.7656
-4.5756 -3.3003 -3.0067 -2.0843 -1.9259 -2.5865
-3.9195 -4.2683 -4.1395 -3.3258 -1.8625 0.0200
0.6503 0.6900 1.0678 1.4719 1.4187 1.4097
1.6210 3.0194 4.5076 5.0719 4.8801 5.9225
6.6471 7.0694 10.6763 7.9978 6.1902 4.2759
2.8267 1.4784 -0.2589 -1.2238 -2.1837 -2.6436
-3.7343 -4.3881 -5.7883 -3.7187 6.4604 12.1741
9.7368 5.5908 1.5009 -2.5355 -6.1209 -9.8860
-14.0707 -17.1035 -16.9624 -13.6799 -10.5896 -9.0798
-8.4597 -8.4119 -10.2453 -11.8289 -14.0290 -15.9329
-17.3415 -17.2331 -15.0612 -12.3971 -10.9855 -9.4775
-11.6731 -13.6058 -14.3457 -16.1085 -15.2726 -13.1727
-13.1292 -12.9212 -13.7859 -15.2522 -15.1459 -14.8950
-14.3499 -14.3910 -14.3424 -14.4808 -14.6771 -15.3239
-15.4065 -15.1402 -14.7422 -14.2764 -13.5698 -13.2985
-14.3364 -15.6013 -16.5446 -16.3889 -15.5878 -15.0391
-14.2119 -13.0251 -12.3455 -12.5754 -13.6629 -15.4593
-19.2103 -21.7316 -22.7353 -22.4364 -20.6222 -19.0203
-17.9962 -18.5572 -18.2450 -16.6701 -14.3001 -10.8586
-6.9524 -2.8715 -0.4934 0.0469 -0.7710 -2.3952
-3.4058 -4.0037 -4.7772 -4.5020 -4.4954 -5.5042
-6.7384 -8.1176 -8.9625 -9.5727 -9.6172 -9.1477
-8.3133 -7.5221 -6.9230 -5.7650 -4.0532 -0.7137
3.2576 6.9092 9.7964 12.2375 11.2365 9.1301
5.8698 3.3983 1.4780 -1.3006 -2.8205 -3.8816
-4.1709 -3.4899 -1.3756 1.3666 3.7102 5.2971
6.1516 6.9350 9.5208 12.0823 14.7051 16.3532
16.2674 14.9131 13.1995 11.4871 10.2112 9.6967
9.9041 10.9255 11.4397 11.4160 10.4561 9.4935
9.2897 9.2936 9.5820 10.9672 11.9788 13.0278
14.2446 12.9227 10.9678 9.0358 8.1098 8.1935
9.5022 10.8115 11.2953 11.6786 11.5369 11.7146
11.3241 10.8024 10.4582 10.2508 11.0693 11.7821
13.1331 13.7097 13.3390 12.6421 11.8986 11.4556
11.0218 10.7085 10.4885 9.8326 8.8826 8.0902
7.4434 6.5045 5.1043 3.6594 2.3861 1.9428
2.0755 2.3078 2.4419 3.4607 5.1934 7.2417
8.8697 9.7852 9.9905 8.9438 6.5597 3.9910
1.8374 1.3464 2.2564 4.0219 5.4564 6.1563
6.3046 5.5287 4.2221 2.1823 0.1728 -1.8173
-3.6203 -5.3492 -6.9760 -7.0591 -5.3666 -3.3090
-1.1683 0.6521 1.4607 1.7837 1.8179 2.2393
2.8924 3.3354 3.8553 3.3342 2.4074 2.0193
2.5640 3.2109 3.9501 4.7963 5.5299 5.7772
5.6502 5.0712 3.8682 2.1876 0.9057 0.1307
0.3753 1.3304 2.6286 3.2364 3.6470 3.6440
2.9527 2.6619 3.1502 4.3196 5.5127 6.8142
7.8908 8.7370 9.3856 8.5163 7.7825 8.1324
7.7876 7.2194 5.9749 4.1623 1.9538 -0.0798
-1.9851 -3.3232 -3.6540 -2.6899 -0.4258 2.2113
4.4727 5.5433 5.1141 3.0292 -0.7329 -4.8531
-8.4228 -10.2925 -9.5928 -7.2141 -5.1356 -4.9327
-5.8583 -6.0216 -5.9922 -5.8520 -5.3079 -4.5902
-4.0376 -3.5712 -3.6795 -3.7822 -3.7594 -3.6444
-3.8932 -4.1814 -4.3030 -4.5587 -6.2035 -7.5785
-9.1858 -10.0443 -8.9055 -6.8489 -4.0325 -1.4395
0.5274 1.4600 2.1482 2.9070 2.9436 2.4376
1.4146 0.0946 -0.4052 -0.8866 -0.8305 -1.2540
-1.2306 -0.8410 0.2260 2.0014 3.5046 4.6040
4.9219 3.9890 2.0305 0.3374 -1.3642 -2.5933
-2.9922 -2.3244 -1.8934 -0.9488 -0.5052 -0.8143
-1.9438 -3.2795 -4.6782 -6.4512 -8.4391 -9.4425
-9.5143 -9.0280 -8.2455 -7.6017 -7.1971 -6.7514
-5.6912 -4.5357 -3.3690 -2.0957 -1.5689 -2.8365
-4.8979 -7.1185 -8.5457 -8.1792 -6.6634 -4.3895
-2.9004 -2.6765 -3.4896 -4.4384 -4.5417 -3.7271
-2.3311 -0.9167 0.1494 0.8818 2.0812 3.0777
4.0841 4.3873 4.2387 3.6801 3.5531 3.0708
5.3525 4.9867 5.7424 5.6755 5.6281 5.5494
6.1798 7.3014 6.6159 4.0328 0.6764 -2.4220
-5.0805 -7.1576 -8.9071 -9.2316 -9.6383 -10.2470
-11.1223 -11.6124 -12.5993 -12.5000 -12.5180 -12.1455
-12.2611 -12.3634 -12.2067 -11.4278 -10.4701 -9.0152
-7.8951 -6.6323 -6.2781 -5.8627 -6.3000 -7.0276
-7.1594 -6.4885 -5.7979 -4.6363 -4.2326 -3.6893
-2.6898 -1.4859 0.1346 1.8116 2.8324 3.6815
4.9206 5.1808 4.6435 3.2832 3.2382 2.9104
1.8407 1.0762 0.7517 -0.3718 -1.6447 -3.5429
-5.0893 -5.7118 -6.0402 -5.5998 -4.3164 -1.5586
1.9022 5.3248 7.5358 9.3988 9.8493 9.4168
9.5507 10.1309 10.9374 10.6555 10.5970 10.4049
9.9910 9.2910 7.5198 6.3597 5.1639 4.8830
4.7071 5.3038 7.8035 9.5801 11.1982 12.7278
13.9890 14.6884 14.5572 13.6174 12.4195 11.6634
11.3798 11.1739 11.0676 11.4068 11.7613 12.2274
12.6131 14.0844 15.4105 17.5080 19.8123 21.2662
21.5072 21.5249 20.8418 20.5728 20.3876 19.4980
18.2223 16.8701 15.8679 15.0467 13.3833 10.8977
8.5412 6.4290 4.7118 2.8377 1.1925 -0.5871
-1.4302 -1.0583 0.3122 1.8778 3.0283 3.8309
4.6611 5.8176 6.8306 7.0980 7.3619 7.4690
7.6893 7.6161 7.5140 7.3541 6.5764 5.4385
4.8295 3.8660 3.0348 1.8486 0.2974 -1.1910
-3.0490 -4.5452 -5.6942 -7.2019 -8.4790 -9.5596
-10.7860 -11.2645 -11.1651 -10.7206 -10.5534 -10.2526
-10.6203 -12.0091 -13.1692 -13.9220 -14.3557 -14.0856
-13.3055 -12.4702 -11.9323 -12.2529 -13.5294 -15.4774
-17.1469 -18.3214 -19.0327 -19.3644 -19.4187 -19.1207
-18.4375 -18.3586 -17.5044 -17.0232 -16.8116 -16.1555
-14.8264 -13.2500 -10.8857 -8.6694 -6.6163 -4.3664
-1.9946 -0.0577 1.3104 3.1302 4.8297 6.1615
7.0442 7.1991 6.4472 5.9829 5.6635 5.9970
6.6087 7.1249 6.9572 6.1062 5.3489 4.4263
3.8512 3.3856 3.1581 1.8452 0.4261 -0.4752
-1.8073 -2.7867 -2.4794 -1.7215 -0.5239 1.3518
3.8602 6.2563 7.7994 8.6377 7.7747 6.3778
4.7930 3.5687 2.5101 2.2135 2.5548 3.4237
5.1238 6.7503 8.3444 10.2759 12.6225 15.2809
16.9810 17.4366 17.7161 17.6563 17.3547 17.3244
17.3454 15.4025 11.8610 9.0624 7.3941 7.1651
7.8392 8.9597 10.0339 10.3950 10.5673 11.0764
11.4639 11.0055 9.5489 8.0895 6.9532 6.2757
6.0488 5.9005 5.5878 5.3170 4.8563 3.9486
3.5152 3.9579 4.5967 4.5822 4.6543 5.0238
4.5213 3.0401 1.8923 1.1188 -0.0194 -0.4228
-0.0200 1.4324 3.9459 6.6650 8.9900 10.0117
10.2371 9.8337 9.4270 8.4326 6.4762 4.5693
2.0192 0.6607 0.1778 0.9699 2.2245 3.0616
3.5605 3.4368 3.2690 3.1619 2.7453 2.3992
1.5344 0.2414 -0.8707 -1.7525 -2.4234 -3.9082
-5.9586 -8.4799 -10.5872 -11.9109 -12.1985 -12.3984
-12.1345 -11.6957 -11.2809 -10.9303 -9.9062 -8.4418
-7.4591 -6.6315 -6.2909 -5.9544 -6.0856 -6.7801
-7.5647 -8.1662 -8.5135 -8.6600 -8.5754 -8.4103
-8.1104 -7.7085 -7.8736 -7.1442 -5.3298 -3.6550
-1.4951 -0.1384 1.0205 2.0825 2.3817 1.5293
-0.1486 -1.7061 -2.9703 -3.2399 -1.9576 0.1113
2.2953 3.5865 4.0647 3.2587 1.7346 0.1047
-2.0279 -3.7246 -4.9817 -5.0249 -4.6008 -4.1619
-4.4780 -5.6063 -6.8294 -7.4955 -8.4457 -9.2399
-10.6164 -11.9581 -12.9621 -12.9456 -12.2040 -10.7344
-9.8370 -9.1775 -9.3705 -9.9471 -11.1555 -12.5368
-14.6073 -15.7581 -16.0342 -15.5525 -13.6174 -11.0745
-8.8660 -7.1224 -5.4073 -5.2831 -6.5755 -7.7929
-8.5490 -9.7286 -11.2726 -11.8693 -11.4695 -9.8910
-8.1285 -7.4142 -7.0939 -6.5152 -4.9049 -3.2162
-1.2730 -0.3321 0.5513 0.1302 -0.8354 -2.6934
-4.0411 -5.2228 -5.3353 -5.5787 -5.5223 -5.6181
-4.6843 -3.4732 -1.6702 0.9081 3.3160 5.9033
6.2611 5.0611 5.8544 1.8905 1.2557 -1.2794
-2.1462 -4.4718 -5.0544 -5.8825 -5.7219 -4.9103
-4.6144 -3.0533 -2.7808 -2.5130 -2.7222 -2.0370
-3.1205 -3.0266 -4.1741 -5.1838 -6.6897 -7.2125
-8.3585 -8.3666 -8.7442 -7.6183 -7.5697 -6.8563
-7.5463 -6.9802 -7.5298 -6.8935 -6.4595 -3.8733
-2.2582 1.8416 2.7714 6.5720 3.4519 1.7548
2.0150 1.0362 0.3303 -2.2747 -1.2143 -0.0815
2.2498 3.6464 4.7269 4.3712 5.9449 5.7198
9.0602 8.7033 6.4465 3.5467 2.1558 0.8153
2.4589 2.9776 4.0173 3.7325 3.6433 2.1357
1.0131 0.1586 0.0451 0.1418 1.3144 2.1071
3.7463 5.8681 7.1047 8.1597 9.6632 8.2050
8.4569 6.9558 7.2959 4.9799 1.2862 1.5558
0.2159 0.4374 0.9359 4.1872 2.3617 6.3906
4.5798 4.2517 3.4203 1.0050 0.3788 -0.8083
-2.3928 -1.7105 -0.3797 0.1525 0.7729 3.4446
3.6805 3.8582 3.0073 3.6256 3.3521 4.1923
5.5862 7.1902 9.2015 9.6832 10.0017 9.8240
9.1154 7.8208 7.7848 8.0474 8.7095 10.4705
10.4807 11.7489 10.8493 10.5129 8.7107 7.5458
4.4543 2.2827 1.7283 1.4458 3.3914 2.2043
3.9680 2.2841 1.5257 1.0337 -0.3548 0.5114
5.1344 1.3921 9.4794 11.5754 10.2946 11.7450
13.7623 4.3576 18.6293 2.0263 12.3624 14.7939
5.3463 11.4100 13.8487 6.0850 8.1947 12.7565
4.9732 9.6274 5.4624 6.5901 3.9304 4.8258
2.2664 4.7442 3.3085 4.3912 4.5677 1.9947
0.4403 2.6950 -2.0357 -0.6619 -0.9339 -3.3744
-7.3328 -3.5983 -10.2116 -4.5045 -7.0708 -13.2563
-9.7683 -7.1128 -9.1713 -11.9555 -12.1353 -11.4017
-14.1370 -14.0746 -13.2506 -15.2395 -12.0762 -14.1868
-14.8313 -15.4556 -15.5895 -16.4371 -18.1675 -18.5526
-17.5615 -18.6684 -16.7147 -16.5397 -16.0802 -15.6012
-14.4633 -14.2289 -12.3322 -11.2285 -10.2236 -10.4845
-9.2929 -10.7378 -9.3985 -8.9030 -9.2208 -9.0816
-9.6906 -10.8005 -10.6130 -9.5618 -9.2641 -7.3749
-6.1617 -4.3746 -3.9745 -1.7563 -3.4648 -1.5510
-0.6140 -2.2111 -3.3952 -0.4507 -2.0730 -0.2862
1.1404 1.9298 5.3561 4.1801 2.9326 2.2942
-0.3730 -0.8616 -2.4857 -4.8900 -6.7161 -5.1961
-4.9476 -5.8346 -4.9455 -2.8468 -2.2375 -2.1949
-3.7467 -2.4257 -1.6183 -2.6484 -3.6236 -3.1164
-3.0029 -1.6216 -1.9641 -1.4301 -2.4885 2.4250
-2.5551 1.9340 0.9035 0.9333 2.4679 -0.9190
-3.8305 -3.7638 -5.7518 -9.2419 -6.0543 -8.3403
-5.0089 -6.3449 -3.3028 -4.0742 -3.6474 -4.6127
-4.4221 -4.5034 -3.8986 -3.7990 -4.2693 -1.2501
-2.9192 -1.8726 0.9978 -1.4071 -0.2500 0.0874
1.8634 -0.0354 2.3058 0.8372 2.9094 3.9876
4.6917 6.7199 7.8301 7.6290 7.1016 5.7936
4.5449 2.3655 0.5886 -0.0018 0.3761 2.5156
3.0622 3.4019 3.6604 3.7903 3.6112 4.6395
6.2972 7.8406 9.7949 10.6674 11.5853 12.2778
11.8014 11.0057 9.1321 7.7869 6.2219 6.0979
6.7501 7.9549 8.5501 10.2571 10.4261 10.2973
9.1216 8.1083 6.3146 6.4404 6.5757 6.3221
7.0455 7.1046 7.7901 8.8299 9.0058 7.9081
7.0446 6.1414 6.1087 6.6811 7.7958 8.8935
9.0799 9.0901 9.0550 9.1615 9.5559 10.1943
10.2577 9.7441 8.7983 7.9351 7.7265 7.1670
7.0986 7.4260 8.4042 9.5358 10.6262 11.2812
11.9007 11.0305 12.1651 9.3173 8.9484 8.4879
5.3922 4.8285 3.2551 3.1473 2.8129 2.4384
2.0217 2.4122 2.7136 3.2470 4.2062 5.3982
6.4517 7.2942 7.0997 6.3724 5.5341 4.4926
3.6305 2.6631 2.2471 1.8461 1.6774 1.2836
1.0930 0.8487 0.7848 1.0108 1.4874 1.9037
1.5988 1.7615 0.8361 0.4024 0.1100 -0.6091
-1.8743 -3.1704 -4.9608 -5.7523 -6.0215 -4.8206
-3.6770 -2.0511 -0.6374 0.9357 2.1138 3.1434
3.7220 4.6663 5.4797 6.3712 6.8971 7.0955
7.0594 6.3406 4.7675 3.8067 3.7421 3.6395
4.0492 3.9654 4.6276 5.2156 6.9400 7.7038
7.5436 6.2787 4.3622 1.5474 -0.8286 -2.2039
-2.6902 -1.8794 -0.3955 0.7364 1.7410 2.6174
2.9713 2.8119 2.5760 1.8686 1.2739 0.2912
-0.3466 -1.1219 -1.4899 -1.2762 -1.1630 -1.5199
-2.2144 -3.3976 -4.4548 -4.7540 -5.4201 -5.0014
-4.5686 -4.0289 -3.4238 -3.3968 -3.9538 -4.3182
-5.3015 -7.1661 -9.0333 -10.5341 -12.2438 -13.4579
-14.1287 -14.1693 -13.9505 -13.9153 -13.4597 -12.9570
-11.9749 -10.6158 -9.1546 -8.4018 -8.3544 -8.8965
-9.6814 -10.0131 -9.9431 -10.1217 -10.5903 -10.6134
-10.0008 -8.4640 -6.6490 -5.0227 -3.8269 -3.0183
-2.5678 -2.1404 -1.8339 -1.4410 -1.1694 -0.9926
-1.1280 -1.6679 -2.6479 -3.8218 -5.1287 -6.4647
-7.4414 -7.4852 -6.7573 -5.6606 -4.6896 -4.2625
-4.3246 -4.5095 -3.8846 -2.3070 -0.6321 0.9644
2.2133 2.9055 3.0660 2.5705 1.8927 1.4926
1.1364 0.8554 0.9118 0.8947 0.7912 0.5640
0.0948 -0.1390 -0.2276 -0.3554 -0.5337 -0.2684
0.1825 0.8569 1.0139 0.9839 -0.3338 -2.0180
-1.9682 -2.2230 -1.8370 -1.7229 -1.4627 -1.3979
-0.9533 -0.5770 0.0237 0.1143 -0.0844 -0.6094
-1.2277 -1.7710 -1.5702 -1.4198 -0.4254 1.4317
2.7817 3.6786 4.1087 4.1429 3.1134 1.6285
0.2604 -0.4170 -1.0137 -1.3856 -2.1000 -3.0325
-3.9441 -4.7668 -4.9490 -3.9762 -1.1650 0.9493
3.3823 4.0577 2.4269 2.5068 1.8632 1.0231
0.0680 -0.9879 -1.9865 -2.9689 -3.0278 -2.5973
-1.8353 -0.6079 0.8649 3.0845 4.9119 6.3517
6.5318 5.5545 5.0619 5.2685 5.9153 6.9124
7.6249 8.0836 9.3646 11.0842 12.8644 13.6187
13.1976 12.5826 11.8883 11.5743 11.4990 11.7514
11.6968 11.6983 11.8106 11.5926 12.3037 12.2812
12.0162 10.7162 9.3601 8.2777 8.6460 10.6898
11.9135 13.6241 15.0570 15.4751 15.5276 15.3767
15.4262 14.9081 14.1997 13.1066 11.9447 11.4422
11.1316 10.9938 11.3087 11.1688 10.1744 8.9200
7.4394 6.2793 4.8545 4.1278 4.1170 4.1929
3.8490 3.6448 3.2916 3.3315 2.9818 2.4073
1.7422 -0.5717 -1.4665 -4.1180 -5.2214 -6.1525
-6.5730 -6.1951 -5.9490 -4.8234 -4.2891 -3.5396
-3.1641 -2.9459 -2.2727 -1.3665 -0.8005 -0.2905
0.0541 0.3341 0.0094 -0.6393 -1.3026 -1.5953
-1.5592 -1.1114 -0.9325 -0.0924 -0.0189 1.2691
1.8742 2.6681 2.5411 2.4898 1.9531 1.6179
0.9407 0.9521 1.4912 1.5752 1.6127 1.5392
1.6764 1.0611 0.5292 -0.6381 -0.8602 -1.7706
-1.7382 -2.4375 -2.7764 -3.0456 -2.3481 -2.8028
-2.9412 -3.0207 -3.1141 -3.0652 -3.9626 -4.0779
-4.2142 -3.8573 -4.4048 -4.8433 -4.6608 -3.2165
-2.5954 -3.4953 -5.3400 -4.9066 -5.9917 -7.1638
-7.9592 -9.1826 -10.6368 -12.8274 -14.7625 -15.2178
-14.6913 -13.9857 -12.8067 -10.8329 -9.0412 -7.9043
-6.7454 -7.9928 -8.8837 -10.7344 -11.8180 -13.3785
-14.0853 -16.5865 -17.6352 -19.4863 -19.3524 -19.1339
-16.4175 -15.5606 -13.0549 -12.5017 -11.3588 -11.6790
-11.7427 -12.3583 -12.5873 -13.3563 -13.0378 -13.5331
-13.2653 -11.6244 -13.6952 -10.3899 -10.8524 -9.8274
-9.7262 -8.4539 -8.1144 -7.8983 -8.0175 -7.9875
-8.2525 -7.7645 -7.4907 -5.2522 -5.8681 -1.5123
-3.3954 -0.4266 -1.3742 0.5357 0.6542 2.8976
1.8647 0.5927 0.3970 -0.3546 -0.6488 -0.5335
-0.5569 -0.3759 2.9822 3.9037 5.5707 5.8850
7.3695 6.7422 6.7575 4.8455 5.1373 4.7210
5.8087 6.3736 6.5630 6.3790 6.3322 6.0749
6.0888 5.7040 5.4719 5.2930 5.3192 4.9013
4.3079 3.4006 3.0848 2.6400 2.7381 2.0625
1.3532 0.5995 0.0746 -0.8037 -1.0024 -1.2317
-0.8928 -0.1587 0.9546 2.4061 3.5959 4.5534
5.1153 5.1820 4.8038 4.1704 4.1155 4.0195
4.3802 5.4563 5.7570 6.5647 7.8173 7.6711
8.0586 9.0971 10.3470 10.5556 10.3344 9.0917
7.8476 6.3711 4.7770 3.5011 2.6576 2.3068
2.5787 3.7535 5.6360 7.5501 9.7055 11.1123
12.3838 13.1270 12.9802 12.6848 12.2250 11.9485
11.6859 11.1471 10.2584 9.6719 8.4482 7.1065
5.8218 5.1813 5.2836 5.7231 6.2327 6.7601
7.1683 7.7911 8.1366 7.5744 7.3658 7.9289
8.2047 8.5730 8.7543 8.8852 8.5025 7.8400
7.2484 6.3732 5.4043 4.1505 3.0199 2.0795
2.0290 2.6777 3.2828 4.0350 4.5230 6.0826
7.7244 8.1029 8.1017 7.1965 5.9859 5.1437
4.5932 3.4755 3.3563 3.6039 3.6333 3.9725
4.4873 4.7649 4.7862 4.7526 3.9155 3.0832
2.3058 1.5269 0.6090 -0.1138 -0.8038 -1.5776
-2.2182 -2.9478 -3.8639 -4.9000 -6.0556 -6.8015
-7.3799 -8.1735 -8.7546 -9.1604 -9.4843 -9.8204
-9.9072 -9.9618 -10.3364 -11.3248 -12.6584 -13.8281
-14.4095 -14.1949 -13.3281 -12.4075 -11.4821 -10.6837
-10.4892 -10.0861 -10.0417 -10.2074 -10.4448 -10.6681
-11.0031 -11.5842 -12.2574 -12.8796 -13.2077 -13.1324
-12.5060 -11.4908 -10.3217 -9.4135 -8.7528 -8.1787
-7.6678 -7.7729 -7.9073 -7.9073 -7.4484 -6.7860
-6.0056 -5.3236 -5.0541 -4.9157 -4.9676 -4.7927
-4.1839 -3.7817 -3.6518 -3.5881 -3.9219 -4.0852
-4.3064 -4.3776 -4.2416 -3.7025 -3.0815 -2.2120
-1.2419 -0.3798 0.2724 0.2886 0.1424 -0.0821
-0.3522 0.0716 0.5557 1.0216 1.7651 3.0299
4.2926 5.2777 5.7091 5.5302 4.5673 3.2700
1.4049 -0.2433 -1.2938 -2.5061 -2.8873 -3.0956
-2.0079 -0.5825 1.2842 3.1923 4.9947 6.1326
6.6695 7.1135 7.1225 6.8796 6.5263 6.3619
5.6436 5.3690 4.7611 4.3313 3.8787 3.1298
2.3638 1.5975 1.2556 1.3865 1.7404 2.2218
3.0896 3.8027 4.9199 5.6121 6.0317 5.3860
4.3268 3.4074 2.8032 2.5205 2.5820 2.4157
1.8475 1.0257 0.3056 -0.5141 -1.0195 -1.2648
-1.3644 -1.0526 -0.4652 0.4584 1.0974 1.7067
1.9637 1.9457 1.6401 1.0194 0.1835 -0.4715
-0.8566 -1.0199 -0.9724 -0.7488 -0.4694 -0.4760
-0.6435 -1.0538 -1.4737 -1.9215 -1.7991 -1.0904
-0.8158 0.2666 1.4495 2.7849 4.0296 4.7451
4.6062 3.9431 3.2252 2.1647 1.3183 0.0471
-1.2522 -2.6548 -3.5343 -3.5160 -3.1375 -2.6849
-2.1581 -1.8453 -1.6358 -1.1442 -0.8338 -0.6231
-0.0828 0.3071 0.6468 1.1058 1.7220 1.6760
1.4296 0.9674 0.1522 -1.0322 -1.6854 -2.4973
-3.4031 -4.0815 -4.2715 -4.0530 -4.0536 -3.1183
-3.1255 -2.6255 -3.0166 -2.9499 -2.9941 -3.8534
-3.9720 -5.3247 -6.3372 -7.3889 -7.5495 -7.2181
-6.3174 -4.7133 -3.1670 -1.5825 -0.5115 0.1287
0.6507 0.9920 0.9379 0.8089 0.5009 0.2308
0.1770 0.3613 0.6927 1.1027 1.4164 0.8860
0.6125 0.5288 -0.0664 0.3544 0.2938 0.4556
0.8235 1.3071 1.3482 1.8077 1.9371 2.3078
2.3939 2.2496 2.4314 2.3327 2.4813 2.5551
2.4140 1.7603 1.6790 1.6883 2.0181 1.8951
1.6420 1.7453 1.5724 1.4962 1.0615 0.5633
-0.0169 -0.8333 -1.9943 -2.6634 -3.0278 -2.8909
-2.5439 -2.0787 -1.2872 -0.4768 -0.1355 0.0188
-0.4669 -1.0435 -1.4289 -2.0997 -2.6235 -2.9236
-2.8885 -2.5667 -1.8998 -1.7224 -1.7191 -2.0739
-2.1994 -2.0418 -1.4379 -0.8673 -0.5557 -0.0983
0.7643 1.8278 2.9143 3.8238 4.3854 4.0150
2.9059 1.7494 0.5149 -0.5639 -1.7396 -2.2993
-2.0871 -1.0024 0.4464 1.5897 2.1483 2.2954
2.1195 1.5405 1.4327 1.2968 1.3193 1.3352
1.2340 1.2079 0.9438 0.5221 0.1181 -0.0137
0.1039 0.3960 0.6727 0.9102 1.2079 1.4312
1.2865 1.1527 0.7952 0.2891 -0.4375 -1.3875
-2.6287 -3.2524 -3.0804 -2.5755 -1.7744 -1.2462
-0.9559 -1.2038 -1.7426 -2.5233 -3.3923 -4.1658
-4.3420 -4.4155 -4.3320 -4.0676 -3.7936 -3.7119
-3.6723 -3.5883 -3.3974 -2.6518 -1.2786 0.1846
1.1914 1.5734 1.5332 1.1583 0.7186 0.0712
-0.5216 -0.2836 0.2474 1.0181 2.0327 3.1231
3.6229 3.2765 2.1671 0.7498 -0.3827 -1.2276
-1.7316 -1.9645 -2.3607 -2.6200 -2.4159 -1.9459
-1.1061 -0.2683 0.5496 0.9341 1.3657 1.4383
1.5104 1.3234 0.9617 0.6012 0.3821 0.2692
-0.0360 0.0978 0.3569 0.7177 1.4230 2.2169
2.5255 2.5186 2.3391 2.3307 2.3889 2.6644
3.0603 3.2987 3.2203 3.1909 2.8988 2.3829
1.7907 1.5545 1.5923 2.0158 2.6275 3.3635
4.2123 4.9024 5.1004 4.7015 4.1322 3.5853
2.9688 2.4381 1.9563 1.4647 0.9235 0.5792
0.4352 0.1722 0.2274 0.2974 0.3754 0.3820
0.2328 -0.0610 -0.2234 -0.4170 -0.6103 -0.5202
-0.2630 0.1878 0.8385 1.4334 1.5538 1.3128
0.7461 -0.1541 -0.7529 -1.2875 -1.6527 -2.0546
-2.5409 -2.7489 -2.8627 -2.8618 -3.1139 -3.3786
-3.3330 -3.0281 -2.6622 -2.1693 -1.6810 -1.4372
-1.8893 -2.5802 -3.5434 -4.2677 -4.3496 -3.8118
-2.7762 -1.5591 0.0944 1.3713 2.2228 2.8804
3.5942 3.4729 3.5120 2.9366 2.4926 1.9361
1.4676 1.2959 0.7433 0.2544 -1.1197 -2.3287
-3.0992 -3.3382 -3.1500 -2.6463 -1.8677 -1.1407
-0.6218 -0.1337 0.1559 0.3882 0.3816 0.3840
0.3135 0.6695 1.1251 2.0451 3.0713 3.7421
3.7736 3.4012 2.7756 2.1813 1.8187 2.0120
2.2020 2.1789 2.4893 2.7291 3.2514 3.5902
4.0852 4.2875 4.0573 3.8039 2.9140 1.4642
0.1829 -1.0363 -1.5340 