Archivo de aceleración parte de la Red Nacional de Acelerógrafos (RENAC) Ecuador
          
Evento: 201604162358
Fecha del evento UTM (aammdd):                  2016    4   16
Hora del registro UTM (hhmmss): 23   58 45.00
Estación:                                      APED 
Componente:                                        N
Frecuencia de muestreo (Hz):            1.000000e+02
Unidades: cm/s^2
_____________________________________________
21.2316 5.4335 0.1335 13.3335 16.8256 4.8513
-13.0413 -10.7143 -2.5070 -2.1412 10.1117 -1.0705
-12.2536 23.9713 9.8142 -30.3850 0.8130 16.8229
-12.2131 -15.6944 1.4646 3.3156 -7.6196 -13.2359
-14.1750 -8.7668 -5.8803 -22.5012 -14.6238 20.6395
8.4750 -8.1784 5.1189 -8.3135 -15.7809 -12.5051
-29.4847 -8.0594 33.1672 25.2519 17.2834 12.5179
-5.5414 13.8030 29.8021 11.6248 -3.3912 -23.7413
-44.5916 -29.9696 -0.7614 2.8452 4.9820 40.7905
64.6644 40.4976 32.8626 26.4235 -8.4478 17.6682
36.3557 -22.9933 -39.4512 -33.6546 -43.8788 -9.0751
-18.8802 -70.2256 -54.0534 -36.6015 -27.9716 -11.1388
-34.5306 -25.7609 22.6086 23.4260 18.9011 29.3587
2.9722 -15.4151 1.9133 11.3057 10.6208 17.7214
25.3609 32.5787 32.6517 12.5710 21.0279 63.2819
59.7654 19.6779 -1.8060 -20.2402 -28.6881 -11.7787
-5.4595 -3.8860 -4.4096 -23.8513 -15.9558 10.7037
-1.1517 -8.8101 -0.9039 -28.0527 -43.0632 -24.2758
-34.8839 -39.6513 6.7555 6.9493 -27.1083 6.9871
26.0855 2.3243 18.7091 22.6618 -15.5296 -15.4863
21.0225 26.2864 20.2916 26.0756 7.6008 -16.9048
-18.2449 -13.8957 -4.4564 24.3813 22.0589 -11.3101
0.5624 17.7115 -1.2481 5.0576 20.7035 -13.2711
-23.8775 19.8365 10.3828 -37.1847 -44.9197 -57.4240
-70.7195 -24.3929 25.6646 4.9945 -19.6625 -1.7033
-0.7624 9.0238 46.9466 51.5211 54.0697 95.1278
100.8712 70.7078 60.3106 31.1683 2.6397 6.0534
-14.8330 -56.4768 -66.4009 -53.9129 -42.9128 -34.5387
-32.2154 -5.5776 28.9134 24.6192 23.9000 15.6981
-34.8623 -43.9780 -17.7655 -59.2886 -96.9798 -78.3014
-81.9558 -59.3976 0.7588 9.5348 -4.5123 6.1588
11.1227 9.5203 7.2736 -16.0469 -7.6278 30.7465
19.9518 -0.9427 13.7993 -16.8616 -64.2633 -29.4704
-21.7020 -52.7783 3.6913 76.2232 87.9902 95.3756
88.0308 18.9677 -32.0577 -15.2439 -16.2262 -69.4065
-88.7986 -44.1853 -10.3540 -16.4488 -31.0637 -32.2155
-41.4655 -69.4020 -86.8358 -80.8076 -77.0965 -71.7676
-31.0547 -21.7128 -39.6666 -13.7452 1.4383 2.1503
30.0796 82.2108 103.4928 72.8986 51.1588 31.5792
25.2626 70.7474 100.0385 84.1997 108.5314 141.5697
131.1788 145.0871 165.3228 127.9786 53.8444 -0.7543
-65.8602 -122.6696 -80.0939 -31.9271 -50.7173 -63.8470
-65.6295 -88.7590 -84.6603 -61.8535 -81.8648 -84.9037
-62.6420 -75.0886 -88.2129 -59.0985 -29.7804 -28.7594
-0.4840 41.3807 33.5483 19.8247 33.1590 38.9276
54.9177 102.2617 114.3640 77.5497 76.6395 82.6929
35.2588 3.4399 9.9502 -1.9313 -14.0436 -9.5258
-15.0682 -28.8441 -45.4200 -32.7184 -5.6029 -3.8509
21.7461 78.2824 93.5912 73.8818 94.2527 116.0312
95.5225 59.6499 -20.5593 -99.6456 -148.5749 -210.2823
-189.4149 -62.6664 74.6073 195.9079 269.9340 267.6908
206.1087 141.6769 41.0508 -101.6337 -124.0485 -47.1341
18.3449 131.1634 229.4652 183.8912 112.1281 105.9125
25.8123 -187.9405 -275.5540 -232.7809 -245.1113 -95.1000
127.6072 206.7449 247.0910 264.7430 213.6536 69.1585
-119.7975 -289.3795 -377.5941 -338.4637 -239.5256 -125.0642
25.4076 144.4805 219.1879 259.2790 187.3798 56.4605
-33.9459 -91.5717 -106.3596 -74.6507 -60.8280 -26.1171
58.8028 117.7426 104.5904 67.6571 77.7335 63.1529
-14.8024 -80.5040 -116.5190 -167.6679 -211.2592 -153.9758
-65.8243 -34.8182 19.0577 53.7893 -16.0533 -72.5383
-56.3165 -65.1168 -82.8490 -66.4930 -61.0389 -22.5276
76.5565 121.9918 72.9364 40.9751 69.1026 44.5312
-20.7171 9.7158 47.8107 28.9530 45.2846 97.3510
139.4319 164.2485 211.2185 242.4192 217.3250 152.8329
35.9103 -88.0913 -147.4520 -140.5524 -90.3479 -9.7746
45.4649 33.4238 6.3678 10.9964 14.4183 -37.7229
-117.0831 -122.4832 -73.5972 -62.1248 -43.2265 21.4234
35.1163 -34.4362 -122.6256 -173.5762 -175.6048 -155.1772
-107.4754 -71.1901 -53.9013 -31.7767 -47.8876 -86.8170
-127.8030 -149.6185 -126.3701 -68.8316 50.3323 222.0627
357.4979 387.8784 348.5308 297.0539 217.0655 83.9626
-84.6595 -199.2886 -192.4944 -90.9229 48.4559 162.6605
211.6762 190.0545 80.5677 -138.4066 -346.9820 -403.6985
-355.2857 -273.5868 -201.9084 -181.8944 -161.9462 -128.1383
-123.1113 -148.6957 -197.7277 -234.3032 -234.1148 -211.3530
-189.1815 -156.9814 -77.2444 60.9782 217.2132 344.9756
413.0473 398.0801 308.3325 143.2052 51.8445 136.0217
198.9169 146.5658 87.8909 104.2551 122.4297 58.1781
-15.5911 -26.3362 -13.1884 3.7732 67.9355 142.2644
217.5530 282.9022 288.5825 210.9679 40.8614 -159.1705
-312.0044 -302.7922 -173.0572 -28.1638 164.5052 374.4955
496.5712 523.8273 520.0774 442.0581 261.9140 -59.4934
-437.2730 -623.9247 -560.3094 -453.3911 -435.9140 -371.0262
-246.6326 -65.3629 163.9221 299.7196 248.4950 65.4689
-64.1553 -148.2596 -250.7223 -344.3081 -335.6385 -189.5898
-22.1528 112.4416 211.1724 291.9855 268.0692 78.9302
-129.4424 -216.1024 -164.8355 -129.8074 -147.8531 -72.6051
86.8870 231.2207 304.6898 308.3919 252.5495 142.4238
39.9972 3.8759 2.2654 -35.1896 -78.5368 -109.5798
-143.6959 -136.7304 -100.8561 -70.3034 -36.7478 24.9245
47.0896 -21.7815 -78.1817 -134.9614 -253.9559 -357.2279
-386.1179 -401.5177 -416.5129 -418.6713 -423.5306 -401.1761
-327.1915 -161.3118 6.4948 150.1003 287.6101 354.5571
387.5269 342.4864 225.7746 65.9961 -44.8281 6.3334
71.9233 131.9815 231.3360 293.6418 309.0065 293.9329
257.6476 208.8283 92.7556 -145.5938 -453.0848 -693.5935
-687.6194 -476.5450 -230.9075 117.8308 486.1153 674.7497
797.0786 811.7998 627.5372 311.1973 -102.9641 -386.0728
-571.0131 -764.1021 -640.3529 -290.6792 -96.1843 -35.7601
-24.8114 -71.4209 -181.6674 -272.1783 -286.5670 -328.6245
-379.7599 -362.9560 -287.6664 -198.3848 -91.3178 65.7374
239.3423 378.1687 409.3667 461.3186 457.6642 374.4431
364.2847 328.9628 389.5438 406.2170 363.6386 385.9939
326.0213 258.4497 163.4498 28.2454 -39.0505 -71.4092
-104.2645 -200.8721 -399.8090 -454.8638 -369.4879 -419.2021
-342.8284 41.5994 247.3279 247.3576 265.3142 206.5546
5.1708 -395.8023 -663.6716 -565.8420 -418.1090 -363.3814
-280.5343 -235.0234 -293.2584 -354.2260 -355.6950 -322.5972
-326.5112 -316.0671 -248.5379 -122.6978 54.0965 179.8013
264.3922 303.2883 324.7487 371.0410 350.9009 322.9517
344.0760 377.3864 425.7930 486.3757 536.4251 504.0358
375.6138 260.1322 196.0501 143.2177 80.7037 19.9344
22.7921 68.9078 66.6431 -12.4207 -115.4629 -144.3674
-96.2258 -77.3248 -34.0326 71.8430 101.2440 42.4592
-62.1836 -150.7813 -190.2082 -229.2268 -234.5899 -210.0419
-235.7498 -324.7034 -411.1499 -445.7995 -441.8819 -406.0851
-315.8734 -209.7707 -147.3269 -117.6835 -73.9606 -50.7716
16.1998 133.5784 237.8417 367.6714 450.9474 595.2127
628.2130 707.0056 812.6901 632.0333 611.5903 394.2615
110.9860 48.1322 -112.2312 -186.4294 -220.6645 -190.1063
-169.8959 -178.1870 -200.3287 -240.9263 -206.8913 -111.2039
142.3201 318.6376 220.7296 -3.3672 -163.4288 -112.7332
33.8490 153.1922 146.7017 -17.5676 -36.7633 78.2443
70.6065 42.3933 44.3417 -20.8146 -155.0296 -311.4755
-459.9746 -522.3679 -410.4623 -270.4075 -253.6279 -280.4983
-268.9421 -229.1061 -162.7637 -32.0410 103.4041 166.1921
211.8554 250.1504 270.9367 300.1250 254.6970 98.9369
-33.8461 -73.1468 -67.2574 2.6816 151.2663 282.7398
321.0700 275.1183 226.4216 218.3143 202.1368 136.4784
17.8643 -96.2015 -188.2093 -310.3238 -477.5427 -649.9427
-664.6216 -443.1022 -189.1835 -7.2983 122.1997 37.4574
-229.5910 -406.1356 -461.8005 -459.3276 -394.6587 -278.0489
-136.9469 -41.9957 53.6656 183.3150 278.5249 319.2162
288.3768 236.5322 200.4749 166.0263 137.9690 132.3815
168.2396 214.9843 259.2192 322.0081 387.0491 418.3624
431.8859 441.3198 446.7198 427.0149 375.4722 341.9527
313.1564 309.3515 325.2632 327.9948 348.8343 363.4960
351.3928 278.7546 157.1323 12.4570 -144.6585 -264.2478
-362.0152 -415.8696 -408.8546 -373.9986 -360.6346 -398.0834
-400.2913 -429.9095 -575.8789 -637.7044 -529.3018 -404.6982
-325.2127 -274.6541 -253.1666 -213.9704 -146.6331 -118.9003
-92.3092 -20.5056 36.3975 66.3140 71.4563 40.6864
-25.0134 -90.5321 -106.3978 -120.2962 -140.7762 -135.0481
-65.4298 88.6477 231.0691 345.3232 442.1921 506.0048
534.0332 498.0913 432.6844 357.2795 279.1169 211.7102
145.6851 78.5686 -4.9616 -88.0060 -160.5333 -220.6673
-206.6066 -171.3028 -152.6766 -112.4224 -70.1441 -0.2897
33.9426 46.3198 91.7992 70.1594 12.1794 -11.9297
-29.1932 -27.9442 -24.9603 -39.2183 -27.2638 26.0994
129.8626 295.4720 439.6831 335.6820 10.9907 -145.2290
-73.1640 -28.6877 -37.6078 -11.0186 61.5295 118.3875
145.3048 204.7006 269.7398 253.7001 159.6601 71.5608
5.4095 -75.8415 -166.2470 -199.0005 -194.6377 -218.3151
-234.6324 -238.8987 -257.4095 -287.8676 -302.4699 -300.0060
-289.9773 -256.5308 -184.2567 -89.0731 -51.2025 -56.4088
-62.4775 -119.8240 -252.7575 -356.5819 -339.5122 -308.1412
-239.1475 -78.6803 37.3510 109.8954 180.0156 257.5393
327.1638 306.6082 220.3392 112.3611 12.6308 -64.7342
-138.0050 -171.5795 -131.7398 -52.5643 18.7473 118.2532
224.4082 292.3547 383.8056 492.0036 535.2723 485.9673
332.9297 56.6656 -209.3608 -338.7921 -364.9938 -258.6721
-70.1667 146.7719 350.5582 367.2378 252.1870 107.9794
-9.5073 -11.3061 10.4310 9.2414 27.5188 36.9841
8.1113 -14.0161 -15.6770 -34.2977 -74.6340 -156.9628
-220.9918 -253.8300 -296.0650 -294.3744 -236.0437 -143.8025
-59.5577 32.4033 109.3276 123.8668 119.3094 101.6070
71.3426 1.1260 -82.6322 -96.5504 -74.4537 -81.1281
-120.7622 -111.8466 -21.5493 48.0897 78.4108 94.9425
81.8633 68.8139 78.4739 80.2952 64.2799 51.8865
42.8735 27.5196 3.6566 14.1980 60.5660 63.1786
10.7590 -47.2544 -82.7475 -105.8383 -152.3883 -189.7848
-177.4229 -160.5884 -181.5135 -205.9489 -158.8319 -86.9751
-42.6177 42.2670 132.7310 146.6096 126.9047 142.0666
144.4152 65.7632 -51.2071 -156.2698 -249.9710 -310.0365
-259.1020 -139.6489 -49.6381 40.9476 62.3305 -54.1532
-141.1656 -105.7842 -34.1941 26.9879 36.9868 29.3878
38.1205 -9.9535 -58.9160 -64.7460 -45.0203 4.2775
22.1953 -14.0531 -46.9678 -24.9153 -37.0149 -112.4739
-149.0629 -170.6964 -208.7030 -279.6514 -286.0887 -128.4045
-19.5513 -18.6745 -2.5113 27.5908 57.4505 40.0968
-1.1685 -6.1594 22.6846 71.8049 105.1991 138.6664
199.2951 256.8588 276.6691 268.0139 267.9941 255.4970
195.6668 107.1430 13.9150 -22.4794 48.6502 173.0023
273.7717 330.6595 367.1980 389.0280 366.3851 270.5679
169.4552 147.1332 158.6019 150.0675 98.9195 9.3323
-91.7957 -200.1523 -265.9432 -267.9321 -217.8908 -111.5249
-47.0886 -81.8951 -121.9672 -149.3738 -204.3078 -261.7598
-305.8991 -296.3679 -218.0737 -87.1734 50.4778 114.0400
116.2767 50.7139 -50.4222 -116.6402 -135.7638 -88.6559
1.7811 100.1388 160.0466 186.8043 183.5050 186.4654
180.4174 113.1883 109.5844 103.8960 63.1037 53.1391
30.7873 40.9809 56.9782 72.3807 133.4637 197.8459
218.9648 223.7970 248.3072 289.2048 277.0620 137.8687
-53.2980 -174.3400 -191.8784 -193.8655 -216.8707 -208.0659
-151.8549 -72.1368 2.8995 56.8286 85.6375 103.7031
68.2289 -4.7193 -96.4865 -238.9043 -368.7177 -413.2284
-377.0584 -330.6652 -290.1271 -226.6974 -157.0954 -116.9863
-100.5185 -91.1604 -90.1204 -69.2259 -18.0203 79.0289
192.7612 256.3765 260.2193 161.8264 -9.7030 -122.7468
-133.0395 -89.7356 -5.4295 129.6731 237.0565 271.9431
260.7240 216.8712 165.9215 115.4422 57.4423 -11.2955
-90.2439 -121.9799 -128.9462 -192.7922 -282.6516 -349.0489
-348.8083 -306.8337 -265.3728 -213.3226 -162.9623 -120.2775
-80.0287 -25.6093 55.0649 145.6623 233.1551 309.6379
317.3891 240.1963 90.1092 -77.5225 -185.3690 -253.1001
-222.1959 -103.7701 46.8639 224.3116 318.7346 298.6575
190.3433 54.0267 -23.5050 -36.4175 15.2180 113.6920
191.0300 228.1796 252.6473 238.8426 183.7464 132.3389
101.6167 89.2089 85.0219 91.7062 106.0678 114.8302
123.2006 135.3940 134.7703 95.3380 31.4001 -44.6942
-151.3746 -262.9017 -314.6147 -293.2678 -293.8762 -326.2151
-293.2751 -240.8401 -215.6568 -142.5184 -11.8488 105.3099
203.5811 303.0437 344.3938 280.4423 151.7238 22.0636
-114.6135 -263.3171 -365.8601 -387.9658 -342.1710 -274.1875
-210.4334 -162.0810 -147.7590 -173.5650 -179.1255 -45.9370
179.2611 303.5682 279.2581 261.5945 224.4440 0.0480
-188.9270 -175.0214 -160.4912 -188.8558 -189.5047 -124.7980
21.7716 174.2639 261.9540 293.3007 293.9081 259.8822
210.4167 124.9192 -41.1336 -253.8374 -392.7539 -398.5847
-316.3793 -169.3699 -23.3230 60.2017 45.7301 11.8646
63.5867 72.9745 52.4315 129.4586 233.7336 313.7797
354.6486 305.1705 138.4833 -92.2690 -236.1431 -245.8806
-204.7928 -155.7707 -117.9840 -74.5630 3.9006 52.6487
-0.9326 -83.5949 -83.2506 -38.1894 -52.1238 -102.0128
-134.5888 -181.7048 -219.4338 -195.7997 -129.3320 -58.5278
7.6019 84.3216 153.2072 141.2427 48.9258 -22.9761
-40.8335 -42.0474 -52.4068 -98.4269 -161.3303 -167.9352
-130.4838 -117.7623 -131.0263 -119.6251 -70.3895 -25.9708
29.4264 126.1079 233.4660 290.0762 256.4152 215.7870
187.6161 123.8837 124.9922 193.2514 244.3444 250.3347
165.6826 27.5708 -125.3712 -303.9229 -417.6453 -353.2054
-165.1289 66.2686 251.9019 376.8119 441.1103 389.8245
281.2759 119.7237 31.5523 -14.0452 -84.2978 -134.5762
-189.4966 -224.0715 -271.5633 -204.2233 -68.4213 16.7878
82.0902 106.3336 98.4354 43.2148 -49.8600 -147.0913
-237.4300 -326.4675 -389.3681 -376.0213 -322.2796 -276.4757
-227.1914 -154.5524 -53.7605 42.2469 111.8598 144.1167
176.8557 240.8621 309.5107 368.8110 390.0155 367.7214
341.6820 336.5685 337.2471 318.1199 244.5363 144.0545
76.4711 34.3154 6.1860 -34.4125 -67.7256 -34.4305
31.3558 74.8544 88.3527 103.5587 114.8400 29.6147
-186.5083 -428.5968 -574.0814 -592.7643 -512.0972 -368.2060
-217.1151 -130.1405 -107.6734 -119.2791 -136.2101 -81.3176
-7.2177 16.0831 29.1533 -13.0530 -92.2907 -141.9887
-188.8451 -180.1142 -84.0149 53.2371 168.4654 204.9481
250.8394 360.8506 485.4875 542.3933 474.0837 342.5146
206.7091 117.3769 72.2012 48.5869 48.0489 48.6500
65.3565 78.4691 71.9984 61.3408 26.3000 -27.1145
-74.4414 -154.7426 -298.6293 -460.3373 -555.5327 -526.7455
-437.1961 -334.0440 -176.4076 38.1365 215.6661 306.1437
378.7323 414.7617 357.7874 252.7977 209.9065 211.3980
143.9192 38.2122 -15.6638 -4.4708 -15.1600 -75.4463
-79.3972 11.8996 141.5959 292.2363 378.4358 310.5812
202.5878 118.3547 75.7501 104.5122 90.5236 34.4244
17.6700 16.9581 29.9120 53.3488 55.7713 33.3069
10.0629 18.1837 73.3718 146.3696 178.1281 138.8734
46.2365 -46.8933 -137.0104 -265.6758 -399.8493 -478.0948
-475.3001 -414.7012 -327.5806 -214.8792 -103.2476 -21.1792
61.2758 139.6223 173.6113 167.0910 114.0442 38.7862
-41.9565 -129.8080 -231.4641 -334.7353 -325.1870 -233.3468
-172.2693 -126.0797 -59.3066 2.4667 13.8165 25.3267
48.8545 32.3471 -26.0845 -96.9942 -141.1245 -172.7532
-218.5363 -250.1399 -231.6327 -181.5778 -89.8845 34.7839
108.2692 130.6687 156.1405 179.6602 181.9087 175.6552
180.7236 241.6713 260.5219 144.0463 3.1552 -92.1150
-165.5021 -234.5175 -185.3341 -21.1125 105.4791 184.8781
240.2916 261.5636 248.3592 212.5317 191.3867 185.3215
127.6281 24.5723 -45.2406 -56.1803 -47.0484 -37.3911
-19.2029 -2.3683 -0.2145 -5.1026 28.1871 77.3731
73.8503 -10.4954 -124.4729 -203.1924 -282.6509 -306.9412
-199.0036 -41.3888 57.9900 58.7722 20.7161 -18.0313
-64.9302 -95.8298 -117.5597 -128.2183 -94.6051 -38.3283
-4.1708 6.7041 26.6072 83.0895 141.5382 157.2038
153.8532 168.1445 170.2380 105.6476 11.6751 -15.5999
28.9891 83.6690 121.4944 149.1696 153.0556 86.4798
-36.0465 -176.0634 -294.7776 -336.8703 -290.2157 -180.6406
-61.7669 48.8202 139.6384 193.7766 194.4859 109.2101
-42.1341 -192.1878 -276.5056 -309.9080 -323.0250 -345.9481
-311.5581 -121.0123 124.8983 330.4645 421.1773 434.1826
470.6319 469.1530 423.2834 363.3666 303.0182 258.2399
202.9662 154.6786 139.1481 100.8847 22.0850 -58.0873
-143.4100 -214.0601 -254.3297 -221.0328 -89.3322 86.0193
236.3244 263.3128 199.7282 106.4397 -40.9482 -214.2386
-317.9990 -315.3666 -326.0513 -391.8809 -425.2607 -353.8779
-226.4643 -176.4564 -173.3914 -155.7592 -151.5605 -172.3622
-191.0307 -178.3390 -180.6398 -189.3436 -168.8231 -150.3250
-137.4017 -96.8149 -59.9195 -85.9788 -134.1591 -176.5871
-169.7424 -68.2142 53.3595 145.4638 215.4740 266.5418
302.2972 312.6611 282.5824 207.0477 115.8988 49.3591
7.6070 -15.5819 -14.6807 23.2033 100.9631 170.1893
192.1490 146.4371 46.9952 -43.8050 -121.7802 -193.7055
-236.3506 -239.6472 -227.1268 -226.8348 -254.7632 -278.7722
-213.8421 -106.7453 -32.7112 34.2485 113.1203 190.4430
241.6910 265.3946 247.6886 199.8958 159.4478 125.6381
93.9769 57.2698 34.7937 41.8240 45.5046 35.3372
18.4999 -9.4727 -51.2328 -108.6811 -189.4680 -294.3604
-367.4789 -356.6699 -292.2913 -205.0274 -102.7133 5.0323
102.6384 164.9451 190.1888 186.1541 176.0931 174.2384
145.7701 69.7245 -35.9276 -133.8140 -218.6717 -296.3764
-313.0740 -253.8836 -150.2682 -36.4449 64.4218 128.4877
143.0954 157.6471 139.0156 87.3602 41.9898 4.8953
30.5679 27.1280 -18.0891 6.5931 40.9174 43.2272
25.8168 -8.3849 -31.5703 -46.1978 -29.8841 40.4920
95.4720 105.0347 135.2747 192.8978 217.9929 206.7179
161.6890 111.5044 64.2983 -9.8755 -52.1196 -73.6125
-119.8156 -169.0494 -180.5623 -157.4203 -136.7303 -75.4834
19.5660 92.0338 138.8678 118.3329 51.4480 2.5206
-57.5458 -82.6453 -59.2265 -67.6582 -94.7350 -112.0156
-114.7391 -106.6327 -94.5656 -57.5737 6.7355 72.2073
145.2771 248.3878 353.2739 429.8116 457.4237 430.7345
386.2428 342.2071 314.8681 273.6793 209.9973 134.7312
56.1379 32.4667 -1.9828 -49.3529 -65.1953 -72.0787
-60.2684 -51.5303 -38.8440 -23.2215 -20.1070 -47.2504
-111.2181 -186.7564 -231.4157 -223.0534 -214.5451 -232.4088
-256.0267 -264.3972 -234.1932 -167.5751 -76.5946 31.7737
110.4725 138.1720 150.8898 169.4935 191.6595 188.3449
139.1516 59.9824 -19.3842 -81.7369 -117.3752 -123.1213
-112.6907 -86.8477 -65.3647 -71.5217 -84.5838 -76.4820
-31.6145 34.9775 92.3186 123.4147 130.5252 134.8808
142.1175 137.6087 121.7673 105.5483 82.3386 52.1995
43.4137 68.9989 96.3668 95.1294 66.9892 30.4029
11.2910 14.1181 34.7305 65.2220 93.1918 112.7787
107.5183 84.6520 69.6081 64.1730 56.6614 42.0862
28.1247 11.6308 -20.1259 -64.3491 -115.3520 -163.3259
-195.5170 -216.4566 -245.1510 -288.3278 -318.2038 -290.4042
-210.4960 -127.5850 -79.4182 -90.7671 -129.2711 -169.9399
-207.2183 -248.5179 -300.8393 -323.3325 -314.9811 -249.5805
-152.0257 -84.1387 -27.1842 9.0407 18.0032 15.6835
-3.7402 -37.0506 -73.9731 -112.2591 -118.9163 -78.4971
-19.1337 32.0539 71.6025 119.4737 167.4846 201.0113
202.4019 162.0855 112.9994 84.8746 106.1394 164.2078
203.4734 219.6645 224.6536 217.1024 205.2542 187.0714
159.7189 131.5724 121.1752 125.3649 108.4204 62.0713
8.4171 -38.2483 -94.7802 -175.2417 -249.4111 -283.9462
-270.7381 -229.7503 -172.9373 -102.1250 -36.2161 18.5628
62.0425 95.8017 111.7666 86.2128 20.6969 -50.1091
-87.2109 -86.7234 -68.0486 -49.5017 -37.4138 -17.2196
12.5824 41.2066 62.8202 76.4185 81.7879 75.4038
68.2824 70.9518 74.9973 70.0299 54.7986 34.3385
8.3458 -10.2812 10.3699 59.1568 99.8093 121.0868
118.9077 95.9909 59.4028 21.5125 -8.6221 -22.0645
-10.2479 14.0081 37.8883 59.4974 79.8151 94.4976
97.5419 82.7774 55.0653 20.9853 -33.4071 -90.6130
-115.1970 -99.9540 -36.1323 56.2432 130.0250 163.0984
168.5065 176.7922 161.4339 98.5017 27.0702 -34.5021
-101.5375 -182.5370 -244.2391 -265.3498 -271.4681 -272.7560
-246.6985 -192.2809 -143.9140 -93.0823 -9.0718 94.6661
160.7724 167.8126 163.2326 157.2459 138.8135 118.0038
91.5624 48.1692 -18.8869 -101.5339 -173.6890 -204.6310
-169.1884 -79.1290 12.2823 93.3792 163.4706 195.0489
177.0148 105.6590 10.0247 -79.7202 -147.6306 -179.3170
-182.8164 -172.3732 -168.2899 -169.2848 -159.9645 -142.6406
-135.8122 -138.5122 -114.2247 -64.7998 -23.9643 4.8013
33.0100 69.9271 109.4486 124.8142 107.9814 67.2865
6.7831 -57.0251 -108.2812 -133.9845 -128.9144 -109.9476
-76.9958 -21.4878 37.5782 75.4082 87.0716 90.5115
99.8192 107.1298 101.9505 77.1764 37.5296 -0.9430
-34.0083 -65.2297 -92.9391 -102.5721 -76.8850 -25.8307
5.4132 -17.4396 -76.2523 -136.3592 -190.3758 -234.8864
-250.1555 -214.6399 -115.4747 16.1538 129.5770 210.5631
259.9339 293.8725 314.2497 290.2739 239.7144 209.0572
200.4299 187.7085 158.8023 140.0175 152.6813 181.6109
211.9500 232.9950 245.9382 258.3586 248.4913 203.1128
141.8569 86.0316 35.4739 -21.1219 -78.3495 -131.5766
-172.1561 -173.6873 -128.1538 -48.6087 38.1478 114.3151
166.3886 164.5150 124.1977 51.2792 -54.5324 -123.1755
-150.0883 -192.9677 -240.9579 -275.5723 -296.6461 -295.5881
-283.1064 -240.3757 -157.8170 -73.4073 -4.1991 59.4721
103.8286 80.8767 8.0736 -71.2254 -150.7119 -207.4014
-238.8427 -258.4800 -269.2161 -264.3235 -230.5670 -178.4150
-113.3623 -28.9372 75.4081 190.0498 290.3181 359.6047
381.8861 354.3696 298.4551 220.1690 127.4718 47.1229
-18.1840 -82.4518 -132.9816 -154.4573 -135.0805 -59.9360
30.8777 87.5952 113.3841 132.1157 129.8122 67.9443
-21.0291 -97.5840 -150.9363 -167.0445 -166.6101 -152.9388
-119.3842 -104.5927 -107.7505 -79.4283 -14.6846 53.0077
84.2625 88.1251 93.3034 70.3361 15.8374 -24.3095
-32.2897 -13.1688 21.0816 49.2515 78.6759 118.3750
146.6638 159.1302 169.9546 183.0420 183.6656 160.7200
107.2595 29.1032 -39.2182 -85.1663 -120.8243 -154.1789
-177.4246 -167.9520 -125.9783 -75.3629 -26.4779 18.8754
57.3731 96.0007 122.5340 105.7860 48.2944 -18.3346
-71.8077 -110.9588 -150.4614 -191.8403 -214.7157 -212.2707
-182.7625 -135.9538 -97.9445 -52.9031 6.9524 53.2258
75.8965 89.8878 113.4589 120.4702 94.4533 58.4978
24.3178 -4.6533 -20.9472 -5.1130 31.0966 60.9338
95.0553 137.5238 172.0472 194.0610 206.9158 201.1274
168.4469 126.0838 92.8699 66.0707 37.5925 4.7634
-31.7905 -71.3084 -110.5560 -141.6305 -155.2838 -151.9502
-128.5161 -78.2459 -21.1941 25.5614 60.1822 84.0948
96.8901 73.5579 16.2132 -46.0638 -108.3868 -162.2366
-209.1841 -250.5216 -263.3647 -231.0690 -159.5681 -75.7487
-4.4659 30.9083 18.4923 -29.3401 -87.1616 -131.5280
-160.2098 -170.2141 -144.8244 -94.7299 -49.5380 -11.6837
24.7828 59.0178 91.1918 124.0092 146.5295 141.1069
119.7700 95.6005 64.1448 17.6939 -37.5348 -74.9295
-82.6042 -70.0450 -38.0900 10.8789 55.9699 82.0806
94.1198 104.8153 109.4241 100.5769 90.1284 79.4527
63.7419 48.8017 41.9841 47.8996 69.2546 108.3751
148.5860 178.0059 203.5362 220.8773 218.0655 180.7213
103.6365 4.0189 -81.4624 -133.9991 -171.3785 -205.0079
-229.5595 -244.6637 -257.7727 -276.0357 -290.9524 -291.5436
-286.1625 -268.8350 -224.1802 -171.8552 -135.3032 -112.3521
-95.5302 -79.5590 -58.7709 -29.8223 6.5450 51.8739
101.4898 148.5094 194.8468 239.4385 280.8976 314.8200
334.5221 330.2576 299.1272 259.6427 228.4888 207.8251
197.5098 200.0440 207.6394 212.2428 213.7334 213.3296
213.6910 209.6960 191.4339 150.0442 89.3172 17.3604
-63.4338 -146.0925 -218.2954 -266.4414 -296.6986 -317.9175
-330.5308 -334.3970 -333.2191 -331.4852 -300.2719 -243.6355
-200.1523 -166.4751 -135.2266 -110.3794 -105.4147 -127.5853
-148.5203 -147.4154 -121.8626 -67.4973 1.6397 75.7117
155.9209 235.8400 311.1421 365.2380 374.7763 342.1941
295.7179 251.0064 206.3416 169.8464 153.9563 157.7999
171.1243 175.9232 160.6640 141.8900 134.3208 124.6959
100.1984 67.8297 31.0434 -13.8196 -65.7526 -114.4529
-139.8444 -148.4293 -158.4688 -172.1094 -181.9479 -177.9988
-175.5692 -183.5980 -193.0283 -199.7395 -208.6696 -207.9531
-185.1796 -166.5995 -151.7791 -131.3659 -109.6053 -79.6168
-43.6469 -4.7598 25.3189 44.6876 64.5556 75.0592
70.1296 44.0712 6.5350 -12.6652 -22.7894 -25.9643
-19.6487 -17.4128 -15.7365 -24.7134 -43.3612 -63.9556
-95.3600 -135.0104 -172.7556 -193.2365 -193.7997 -178.9712
-141.7244 -97.0479 -63.9475 -42.7538 -25.7426 -3.9172
14.5891 34.0002 63.5499 97.8363 134.6046 170.1176
199.1428 216.7289 224.8857 223.6141 211.2829 191.6114
175.1175 173.8801 179.0855 176.8550 168.0304 152.3962
122.3563 87.8842 67.1330 60.9273 59.3070 56.0842
49.5135 30.5684 3.0068 -23.5392 -41.0893 -48.9695
-67.5235 -94.0803 -104.0954 -102.2948 -118.7670 -155.5949
-179.7436 -169.8475 -149.3053 -149.4414 -157.6749 -151.5430
-138.8685 -136.3505 -139.0370 -128.3415 -108.1797 -86.2903
-49.5012 -14.2550 -4.8545 -12.1552 -24.2431 -31.7699
-48.3404 -73.9617 -79.3023 -75.0702 -73.4544 -60.2382
-28.5427 -0.5828 5.4301 7.9931 11.7079 7.2694
-1.4858 7.6723 41.1296 68.0243 73.4550 69.2130
69.9358 68.2154 53.5626 48.2284 61.0697 77.1535
87.1659 81.8686 48.6592 -6.9462 -51.0603 -66.7503
-73.9113 -84.8583 -79.2005 -37.5097 25.7622 77.5320
101.4329 102.7334 84.6272 43.5791 -8.1421 -51.8191
-87.2077 -126.1885 -166.6608 -188.7837 -193.8007 -196.3989
-198.3446 -195.3553 -170.9830 -118.1137 -47.4780 29.3706
101.7402 160.5972 191.9294 187.0106 123.2295 -3.2206
-136.0640 -208.5291 -213.0171 -191.0583 -136.5975 -45.7837
36.6091 82.3895 109.6123 138.2508 141.0842 97.4694
14.7440 -91.2938 -195.1498 -263.6451 -284.8343 -285.5787
-269.9220 -205.7074 -97.3535 25.9712 144.1060 242.5673
314.2908 352.6390 366.8357 356.2077 323.6958 287.8701
242.6277 182.2568 117.6600 53.7843 -4.2246 -30.6462
7.6299 99.9279 178.5645 191.4482 160.7567 131.9973
92.9543 33.7487 -14.0189 -29.4530 -13.9405 6.5755
18.3939 44.7965 79.4804 86.2413 74.8878 49.7388
-0.1512 -63.2789 -117.6686 -138.3215 -152.7057 -186.2558
-198.3752 -159.2962 -107.4047 -75.6714 -38.7093 7.1657
38.3367 39.7498 4.1746 -52.9033 -110.3066 -146.5477
-143.9613 -118.1868 -85.3522 -25.6824 56.0508 125.7781
173.6799 211.7208 226.5988 164.7319 63.0072 -14.9337
-86.1624 -149.0801 -178.2081 -113.6546 36.9155 173.7151
251.0170 287.4285 329.1102 366.9005 357.1873 298.5088
206.7804 113.3991 52.6379 25.3593 14.0942 12.7757
26.2884 37.2750 28.9217 19.2752 9.3457 -16.2855
-48.1468 -74.5503 -98.7099 -99.1929 -50.3989 6.2005
11.3915 -10.0059 1.8792 9.9838 -46.6508 -136.1109
-211.5005 -273.2908 -328.0536 -363.4629 -369.9912 -333.5671
-267.7953 -201.3294 -124.0356 -28.3085 64.9475 96.1626
84.2928 104.5546 96.9304 25.9162 -37.1764 -73.2030
-103.1123 -134.7294 -136.5831 -83.7291 -14.8941 39.2108
83.9206 124.8002 165.4789 201.3055 217.1721 212.8626
183.6400 129.9029 93.1372 92.6857 116.1658 154.9330
199.5563 237.7097 251.8776 248.1656 234.0013 185.1396
91.0419 -24.0377 -151.9172 -299.9431 -426.1022 -492.7744
-491.0216 -398.4829 -263.0910 -150.0742 -60.3879 0.6409
38.1104 41.3872 -12.8474 -97.3581 -172.8207 -217.0240
-248.1120 -281.9460 -288.9043 -265.0043 -212.7433 -145.0329
-89.4978 -39.8719 -25.7699 -37.8280 -34.8576 -20.1707
10.1586 51.3374 130.1417 229.4448 290.6836 313.9852
309.3295 297.0803 298.8025 312.6433 318.3497 307.3081
285.1420 247.4851 202.0535 162.1426 132.3703 118.8630
121.8433 140.8146 180.0334 219.2440 218.9547 185.3964
164.7074 153.8326 111.2848 36.8163 -37.7253 -91.9428
-128.6517 -176.3444 -237.0101 -273.8235 -285.8168 -300.2379
-313.5361 -306.8068 -296.8484 -309.5437 -334.3801 -343.8049
-333.3320 -333.5870 -342.3675 -295.5309 -184.1886 -85.2685
-40.0450 -4.4753 68.3945 139.4367 167.1713 188.1460
219.8586 227.9127 203.2710 186.8924 191.1425 186.9159
165.1175 135.0505 120.5681 115.6015 101.7266 89.9460
79.5848 69.6274 72.3941 102.0113 147.1131 176.4519
187.6233 196.8796 200.5646 175.5931 115.2068 45.0415
0.9148 -18.3557 -45.2819 -91.0560 -142.0932 -168.9762
-172.3738 -180.2710 -184.5662 -161.4791 -121.1203 -83.2876
-47.3403 -33.4004 -48.1189 -54.2742 -37.0539 -35.5886
-76.7809 -108.9639 -108.7828 -126.4600 -160.7266 -161.5719
-124.0817 -83.6662 -40.7723 21.6390 75.3077 94.0194
89.7477 85.8959 65.3331 -0.2270 -59.7265 -61.2531
-30.3102 -4.7601 19.7726 59.3617 98.1019 120.1526
131.3285 142.0366 145.5270 125.7527 85.4516 32.3814
-16.0414 -35.6219 -33.0787 -39.0465 -55.4890 -58.3251
-49.1391 -37.7947 -23.5674 -7.6061 10.6217 12.0690
-16.6533 -48.1947 -68.9062 -93.1919 -134.9854 -185.4845
-215.3154 -220.7893 -206.5827 -171.8394 -131.2220 -91.9510
-63.6360 -54.0066 -42.6685 -30.5076 -39.2151 -61.7083
-78.6474 -86.5474 -90.1450 -84.0970 -63.3043 -25.2139
32.3336 85.6030 112.5329 129.4566 148.6686 150.7107
121.3890 86.2167 73.2925 69.2416 51.0471 22.5140
2.1900 -4.0157 -0.5668 9.8034 27.0876 50.0612
69.7940 81.2168 82.0324 71.8001 52.3611 18.6010
-13.0891 -28.2870 -44.6521 -74.3982 -109.4344 -133.2614
-139.7609 -134.3366 -119.9785 -85.3244 -27.7139 34.2594
90.0559 135.1901 159.7741 157.0489 132.6586 95.1720
54.4672 23.3070 2.3134 -19.9797 -43.4345 -48.7084
-33.0238 -14.9303 2.6847 30.8637 54.1193 53.1812
46.3536 50.2054 59.1057 58.7182 48.7391 45.2001
44.8297 44.8351 51.7446 52.9018 47.4017 53.3073
65.6133 62.5041 50.9326 57.3429 69.0523 70.4879
78.2005 95.5874 107.3671 100.7180 85.4903 72.1885
52.4349 23.2926 -2.1899 -8.8760 -0.9490 13.1450
26.4901 30.8429 34.9659 56.4390 86.3203 106.0865
120.0768 130.0523 127.4063 113.5899 104.8924 91.0877
65.1519 52.1285 54.8871 59.1877 43.2877 21.5929
37.0513 75.8429 96.8365 92.9018 80.3093 58.0711
20.2303 -20.3646 -50.0008 -68.1727 -79.3062 -74.8813
-53.1784 -30.0580 -15.3971 -3.6400 -2.8505 -18.6901
-31.7567 -43.0903 -62.7925 -83.0733 -88.7608 -75.7528
-61.9814 -45.6002 -4.9774 42.6244 69.1613 83.3553
106.5857 131.0598 123.0454 85.2289 55.4143 43.6463
32.0631 20.4511 23.7432 29.1874 23.0321 25.2698
44.6593 64.6390 73.4628 70.6934 60.7675 39.5143
4.0221 -30.9808 -54.3311 -76.7657 -105.7855 -131.4312
-147.0806 -158.3367 -175.0379 -196.7705 -213.3662 -209.0891
-188.6731 -171.7313 -157.4688 -146.8022 -147.2888 -157.9240
-177.1476 -203.1366 -226.3598 -238.6883 -237.9124 -226.0246
-203.2655 -167.6092 -128.7672 -96.6194 -67.6906 -39.7820
-23.1241 -19.7464 -16.9698 -11.1065 -9.6790 -16.6147
-21.4875 -15.2503 -5.8985 1.5419 11.0767 23.2898
31.4367 33.7952 35.3570 35.5616 35.5805 38.5662
43.8157 47.5422 46.0904 42.8109 41.8177 41.1878
41.5861 48.5687 63.6819 81.4492 100.1430 114.6677
114.9732 100.8982 72.2984 39.7125 16.9841 7.9774
9.7321 5.5288 -8.5264 -25.3438 -37.8634 -32.1858
-5.8732 28.5177 57.9827 77.6389 85.2874 71.9207
41.0066 11.7021 -14.0481 -41.1095 -67.4068 -90.5687
-100.7514 -92.7361 -63.0783 -16.3002 18.3566 25.2427
25.3905 38.3904 56.2226 69.0964 75.6553 75.4445
66.8091 43.0524 6.9798 -29.9030 -59.3716 -76.9578
-84.2062 -83.5068 -71.4946 -47.8190 -27.6455 -32.2408
-66.3470 -110.9071 -139.2240 -147.3024 -149.2742 -151.7751
-146.0064 -124.4532 -96.1499 -73.7351 -63.8101 -63.9326
-72.4040 -88.2724 -105.3007 -117.7942 -115.3240 -83.7925
-31.6757 16.1342 55.5079 95.5486 133.4777 157.3173
167.9263 176.7743 184.4436 186.4722 186.7922 191.3189
203.1491 217.5341 220.7496 206.7944 181.8121 155.2193
132.0880 108.3826 77.3505 52.1726 47.2646 41.3932
20.8042 5.4702 5.2782 9.0029 13.6333 25.5581
39.7530 48.8165 53.9344 53.2540 40.5587 21.7685
14.4165 21.9163 24.2892 6.4093 -21.7535 -53.3101
-85.7833 -103.4109 -106.2416 -92.9371 -51.5537 2.5665
43.9490 54.0425 29.4234 -23.7785 -90.7012 -145.2963
-180.0766 -202.7537 -228.1542 -249.8264 -246.5064 -213.9999
-175.8860 -161.0008 -153.4117 -145.3414 -141.2157 -145.3937
-161.5541 -173.3032 -180.7345 -179.0763 -166.7108 -143.1983
-104.8808 -65.2421 -29.2137 1.3426 25.2111 33.9781
16.8677 -19.7898 -59.9953 -92.3856 -113.2314 -118.0997
-104.3951 -74.6102 -39.5677 -5.4056 30.9040 63.9837
85.1297 92.4979 97.1382 108.8557 119.0547 125.5839
137.2221 158.0977 183.3504 205.3011 223.1729 233.1087
229.3183 214.4474 202.0991 207.3468 228.2792 250.3623
267.9809 285.2589 301.0895 306.6382 295.6417 270.7116
245.1083 230.9972 224.1363 211.8925 185.7314 140.6728
82.3206 25.1065 -26.7102 -73.3674 -115.9684 -155.2538
-188.6255 -201.5011 -192.8378 -185.5218 -185.8705 -194.0454
-196.4588 -197.7529 -196.4426 -191.1210 -220.7517 -255.3392
-270.0757 -271.7538 -249.9770 -221.1438 -179.7414 -129.1188
-96.6114 -86.5161 -91.5998 -103.4092 -119.0785 -133.7763
-138.9609 -143.5030 -159.2777 -174.6226 -185.3623 -187.7955
-159.2191 -105.2089 -43.2771 19.7930 76.9638 127.9847
164.7215 179.3823 170.1396 137.3915 88.6731 29.1052
-28.3585 -74.2993 -108.9706 -126.7550 -123.3511 -100.6497
-71.7002 -44.6226 -14.6457 20.3896 52.4491 73.4220
88.7461 103.5079 109.5397 93.7532 60.9232 36.0436
38.1118 62.5877 102.4048 150.0138 189.0937 218.0216
242.7696 256.5229 210.3920 85.6658 -36.5198 -78.9829
-52.0233 -7.4298 50.5052 122.7153 177.3249 195.8771
186.2405 173.1045 150.1039 107.7075 63.4628 23.1968
-13.1750 -42.3218 -58.0812 -45.9086 -1.4187 46.7886
80.1144 111.4628 139.6328 146.3531 121.1355 74.5620
33.3093 21.3457 35.2243 48.8055 53.1394 58.4169
68.0778 70.1524 50.5881 12.0633 -34.5624 -84.6443
-132.8634 -176.1448 -212.3823 -234.8755 -239.8114 -227.3523
-202.6718 -169.0568 -138.9691 -117.0824 -95.4579 -86.2304
-84.6398 -83.2096 -86.8234 -95.6093 -111.8653 -115.6468
-102.6540 -86.0493 -65.6171 -37.3814 8.0142 54.6246
79.3213 88.4469 93.2512 93.6279 85.7388 78.5850
87.3474 109.4522 139.5561 177.5546 216.3615 238.6520
225.6502 177.0274 110.0074 46.4642 -7.8831 -56.8935
-94.2810 -103.3174 -74.0317 -28.6596 0.9956 -1.2971
-27.4574 -56.4762 -80.2077 -92.5696 -96.5114 -103.0930
-107.4918 -103.7166 -95.6337 -91.4854 -82.0119 -44.7497
12.2624 57.0290 67.4614 54.6660 34.5583 1.2947
-45.3184 -89.7398 -112.5322 -107.4746 -71.2155 -13.5382
32.9136 51.4938 53.5233 51.7578 37.8288 11.2071
-9.5017 -17.9956 -17.3900 -10.2804 0.2196 1.0532
-4.4433 2.6420 8.9234 6.1144 1.0820 -6.4214
-20.0864 -47.3623 -75.7206 -86.4207 -78.6504 -62.5612
-47.9085 -39.2344 -38.4116 -37.8699 -31.1442 -26.3525
-24.6231 -21.9357 -19.4808 -16.3311 -10.2813 -1.8108
0.6918 -3.3429 -6.0105 -3.2519 0.6251 -1.9136
-10.2894 -20.6163 -28.7822 -33.8938 -33.2576 -27.0212
-16.5195 -0.8285 13.8269 25.1875 35.4568 46.2920
54.8832 61.1790 69.0529 79.7682 88.2684 84.5221
71.0499 44.3535 12.1254 -11.0798 -21.4364 -6.1421
28.2813 66.3474 95.2933 107.4253 105.6527 102.4453
105.1831 97.8473 72.6964 39.9132 11.1196 -12.7930
-35.4025 -48.1798 -44.2938 -35.4863 -26.9987 -14.8225
-5.9096 -7.4425 -13.0039 -11.9765 -6.1619 1.6642
11.3909 18.0490 16.4791 7.1300 -3.7241 -11.3150
-15.2163 -16.2545 -19.5980 -32.7160 -55.8400 -84.4308
-110.8894 -128.4629 -138.1239 -143.4905 -138.5781 -116.8482
-88.7999 -64.7305 -48.0266 -38.3053 -28.1496 -16.4771
-5.4058 5.7421 14.5028 16.5836 11.1683 1.7984
-4.0639 1.0252 10.5212 15.2282 18.4627 22.7677
28.1407 34.6069 40.5413 47.3860 56.5576 66.9917
76.9546 83.0891 81.2182 67.4216 44.4859 21.1410
2.1914 -7.5480 -4.7020 6.1981 18.1022 27.3206
33.8390 37.3492 37.5908 38.1756 43.0196 50.6105
58.3284 65.7706 70.9579 72.2620 71.0859 70.9282
74.9007 79.4960 82.2942 84.6040 82.1464 73.0929
58.4528 37.1924 8.6629 -25.3342 -58.8402 -86.1729
-102.7578 -101.2663 -82.7060 -60.7679 -41.0152 -22.9704
-12.4226 -14.0655 -21.8664 -29.9836 -39.7734 -48.2889
-54.2729 -55.0209 -52.5291 -54.6884 -55.8004 -50.9231
-45.7033 -45.6330 -48.2141 -51.2530 -57.2036 -62.3405
-62.4306 -60.3479 -62.6064 -67.8784 -67.2701 -59.3737
-47.4670 -32.2844 -17.0197 -4.5795 7.6211 18.2526
22.0575 15.3841 -3.4538 -27.9676 -48.7242 -61.2591
-65.1514 -59.8036 -45.5249 -25.6956 -1.5118 24.4088
47.7095 67.7983 84.4877 96.3485 102.6389 105.3642
104.8541 95.5699 76.1353 52.5390 29.4005 9.0918
-6.3071 -13.0310 -12.4407 -14.8154 -25.2315 -41.7209
-61.5691 -84.2984 -108.8662 -128.2710 -136.7920 -130.1906
-103.2860 -65.2785 -33.8417 -14.9298 -7.9491 -10.7915
-20.2343 -31.5742 -38.2297 -36.0650 -21.0986 6.9064
41.1541 75.8478 109.2466 141.1241 167.4889 180.4816
177.1904 162.2889 141.1259 117.6440 96.6270 79.4878
63.5040 48.0438 36.3299 27.7765 20.9517 18.1670
19.2556 20.7372 18.4247 15.3651 14.1728 10.3859
4.2082 -1.4208 -5.7448 -12.5417 -24.5160 -34.5573
-38.2630 -36.3948 -27.6441 -11.3971 8.9449 28.8679
49.3037 68.7301 84.1515 91.4225 90.7619 90.0616
86.0044 78.3847 73.2803 73.2938 79.2994 85.4853
90.7835 98.0274 104.7594 104.0691 95.0354 84.3858
73.1505 57.6569 37.6835 16.1807 -6.0160 -26.3293
-43.1088 -55.0507 -61.2384 -62.6623 -61.0465 -59.5847
-59.8343 -64.1908 -63.1976 -70.3145 -80.2440 -76.0597
-90.9431 -94.4028 -81.9076 -81.2443 -55.5212 -20.3669
8.6700 28.5272 35.2872 48.5295 47.4174 22.7541
-1.0747 -14.9831 -23.7239 -19.8658 -2.8276 13.3932
26.1741 38.2557 49.9246 54.3486 48.4358 37.1355
23.2380 11.3448 4.7092 -1.3532 -6.4532 -10.4608
-16.0483 -20.8418 -24.9036 -26.2058 -22.4946 -17.3073
-11.7829 -5.3582 -1.4352 -3.5017 -12.7598 -26.2527
-40.3277 -51.8713 -60.8293 -68.3354 -69.6584 -65.3002
-59.0134 -49.1893 -35.8550 -25.5164 -23.7401 -30.3496
-43.1179 -59.8848 -77.5728 -91.7146 -101.2394 -106.1925
-103.7709 -94.5489 -85.3710 -81.2957 -82.9918 -86.9066
-87.5690 -82.7674 -72.2855 -56.3512 -32.5467 -4.4867
18.8689 34.2534 43.8531 51.9721 57.3415 62.5189
71.1633 77.1166 77.2311 70.6577 53.6780 29.7393
8.2815 -5.6836 -10.1427 -5.2492 5.6536 18.1894
29.0273 35.8963 36.0630 29.2049 16.8232 -1.1920
-21.1203 -32.4485 -31.5662 -22.9606 -11.3657 -0.3340
12.6929 26.1227 34.2534 34.5012 26.0777 11.6151
-5.7431 -19.9605 -30.9732 -37.7503 -35.9758 -29.5160
-16.3908 -8.5368 -13.3060 -16.6368 -17.6967 -11.4369
0.5068 14.1547 31.4209 44.1991 51.9333 52.7191
43.3628 25.5522 6.1087 -5.2231 -10.3158 -14.7308
-18.0905 -21.1519 -25.4399 -34.4663 -48.0205 -59.7218
-67.7641 -74.9774 -82.3177 -88.0107 -90.2556 -91.3541
-95.1617 -99.8327 -101.7487 -101.5107 -102.9428 -100.8925
-92.6113 -80.8875 -66.2844 -49.0172 -28.4481 -8.8351
9.9604 24.2977 31.4885 34.4174 31.4317 28.3009
24.8628 21.4887 24.0319 26.3228 28.4379 33.7550
38.6134 42.4499 48.7962 59.9441 72.2501 81.9164
91.3439 101.1968 108.0757 109.3176 99.9793 78.6937
48.1590 16.1049 -6.1324 -18.6087 -25.9860 -25.6093
-13.1285 6.5890 22.2349 28.2883 26.9473 19.5123
4.3035 -17.1938 -40.0755 -60.1499 -75.4650 -79.9972
-72.1044 -60.6230 -49.0380 -36.7149 -28.9654 -28.7032
-29.5891 -29.4070 -31.7646 -35.8389 -38.8670 -40.2440
-41.5048 -40.3441 -35.4595 -29.9162 -23.8583 -16.2890
-5.2420 10.4390 27.9134 43.5898 56.0031 64.0995
65.3648 60.0909 50.6805 36.1702 17.3575 0.6239
-8.7658 -10.9260 -7.1896 1.0835 10.8580 19.4898
24.0616 23.5443 20.6875 18.6832 17.6765 16.5464
15.9723 17.9424 23.3181 28.0422 28.9083 27.2717
23.0486 16.6131 11.8421 10.7760 13.0137 17.2169
19.8728 19.8710 20.5550 23.9327 29.1498 35.8277
43.8250 51.3537 55.6912 56.5402 55.3848 53.6428
50.5805 45.2814 39.0595 30.0780 18.6057 8.8816
1.9216 -3.6722 -8.9397 -11.8515 -12.1174 -12.7942
-13.0168 -10.4249 -4.0651 3.0310 9.1889 16.0543
21.2849 23.9552 25.5305 23.8669 16.5914 5.3678
-11.9750 -29.6819 -36.5671 -34.7593 -26.1690 -15.0734
-7.8871 -1.4976 3.1725 2.4506 -0.5784 -3.5704
-6.5065 -11.4424 -19.5028 -27.8939 -37.1746 -50.1934
-61.4098 -63.2970 -58.2673 -49.7743 -37.7099 -22.0442
-5.3367 9.0772 22.1888 32.9006 38.7945 40.8663
38.8197 31.0062 19.9836 10.4524 2.8724 -3.1180
-5.1159 -1.8283 5.9509 18.5768 35.3338 53.9708
73.6054 93.0075 108.5335 116.8336 115.7071 100.7669
73.3134 42.2884 15.4757 -4.6437 -21.4729 -34.9738
-41.6419 -42.9558 -42.4025 -39.9422 -33.2372 -24.3063
-18.1069 -16.8308 -18.8972 -23.7034 -34.2240 -47.8476
-58.3133 -64.3018 -67.7246 -67.4200 -61.0881 -50.5873
-36.6483 -21.4467 -7.7926 3.2013 12.1863 22.2996
31.7578 40.4599 51.8160 64.0174 71.6182 72.6465
69.0119 57.9992 35.5384 6.9647 -18.2403 -38.9212
-56.8687 -67.7481 -69.1864 -65.9871 -64.1504 -64.5317
-64.8471 -66.4981 -69.4387 -70.0452 -66.2593 -56.3415
-42.0348 -29.3269 -20.0472 -11.3577 -5.9839 -8.3811
-15.3771 -24.6100 -35.1046 -41.7050 -41.7915 -37.1341
-31.0077 -26.3818 -23.2357 -22.7463 -25.5779 -28.0508
-29.8289 -32.7713 -36.3365 -38.5391 -36.4113 -30.5264
-23.8052 -15.4105 -3.3586 10.4857 23.5108 35.9583
48.5337 60.6126 70.2303 77.2336 82.8661 86.2420
86.1862 83.7097 82.6462 84.4432 87.3686 90.9022
94.8666 97.8965 98.9653 95.6768 83.3068 64.0678
44.6820 26.3767 7.1539 -13.2557 -31.3285 -44.8286
-55.5494 -62.3120 -63.7296 -60.7124 -52.9656 -43.0460
-34.9514 -33.1463 -39.3060 -49.3328 -61.9642 -77.2000
-91.9744 -103.1025 -109.0072 -106.4027 -91.6770 -68.9954
-44.8466 -22.8112 -3.3893 14.4050 27.9321 35.5753
37.6165 35.9213 33.1150 30.1608 31.1341 36.2692
40.7960 44.2917 49.1051 54.8728 56.6500 51.8925
41.3114 24.1317 1.7521 -21.2278 -41.0382 -55.7639
-63.5936 -64.3533 -60.7376 -57.9917 -60.2970 -65.9286
-70.2553 -71.1628 -68.8314 -60.4132 -42.2809 -17.8249
6.5041 30.6934 57.7711 85.3579 103.6263 104.9763
88.9321 59.1274 24.3192 -7.3583 -29.6487 -39.6251
-39.4593 -31.4421 -17.3833 -1.0922 15.4233 31.7730
42.7110 43.0931 33.3736 16.8292 -4.7601 -27.0442
-45.3622 -59.0019 -66.1404 -65.7006 -57.9403 -45.6136
-30.6509 -13.8803 0.0695 5.4632 0.1650 -12.2672
-27.2750 -39.0709 -44.9656 -43.5796 -33.5978 -18.8171
-1.5067 13.5245 23.2341 28.6071 27.2508 17.3645
0.9887 -15.5836 -29.8236 -39.6467 -39.4647 -27.6940
-7.3502 15.0944 35.9808 55.0800 69.2966 73.9828
69.2128 58.9255 46.9439 38.5249 36.3809 38.9484
41.9314 42.4965 40.4381 34.9344 29.5236 27.4887
28.0609 29.8318 32.3318 35.7410 39.2332 41.7079
38.0175 26.0485 12.6503 0.3218 -14.0435 -29.9317
-44.6124 -56.9157 -67.3039 -75.9393 -82.0900 -84.2944
-79.5504 -68.2511 -54.9330 -41.7799 -30.3328 -20.8999
-11.3119 -0.1306 11.1390 19.3111 27.3850 37.5804
44.7576 47.4342 48.9689 50.6181 49.8350 46.0697
41.6727 38.0986 35.6175 34.4496 34.4991 33.2077
30.5518 23.5909 10.8848 0.3416 -5.5875 -9.6077
-12.5222 -13.5181 -11.5832 -7.4205 -3.0569 -3.5507
-11.8193 -23.5287 -35.1065 -46.5690 -56.4282 -59.7969
-52.8972 -37.4929 -19.1903 -2.6685 12.2772 25.3690
35.4084 40.4336 38.1490 32.8139 28.1726 27.0479
33.0401 45.8012 63.5657 82.4532 99.6176 113.1835
120.3229 119.5370 109.8788 93.4867 75.3274 60.3538
50.9299 45.6804 44.9531 51.8185 64.3408 76.6459
86.7150 94.1734 97.9558 97.1267 91.5635 83.6410
74.8389 64.7652 53.2830 40.6787 28.8666 19.6769
11.5814 2.1232 -8.6669 -18.4135 -25.7132 -32.4363
-37.8011 -39.4963 -38.9664 -39.7351 -43.2075 -47.4396
-54.6988 -64.3886 -74.3956 -82.9741 -89.3916 -95.0774
-93.6679 -87.5676 -76.2674 -67.4635 -64.2227 -52.5909
-48.3390 -49.5466 -42.6596 -39.4450 -44.7143 -49.2753
-45.7759 -44.8062 -47.1989 -43.2877 -36.9585 -29.6182
-19.8068 -10.0079 -1.5420 3.0145 2.1331 -3.1146
-11.4490 -18.5631 -19.5454 -13.8777 -3.0011 10.2908
22.7473 33.0022 38.2012 36.7124 30.1742 19.3426
4.5493 -12.3781 -28.8522 -43.7996 -57.3835 -67.6410
-73.1763 -75.9475 -75.8321 -70.4438 -59.2030 -44.3971
-28.8279 -14.3536 -3.1218 1.9114 -1.6267 -12.6530
-25.8106 -33.7467 -34.1288 -29.6011 -21.6660 -11.3679
-2.0566 3.1217 5.4297 7.3268 6.1588 0.8795
-3.0443 -2.6000 1.5167 6.7878 13.9074 23.1772
29.6415 34.0511 38.8888 42.3711 43.0425 41.1752
35.2705 24.3037 12.1067 1.8627 -4.6395 -8.0271
-10.5847 -12.2340 -12.5557 -12.4710 -14.9367 -19.9843
-25.7431 -32.4408 -39.9974 -48.2967 -56.5148 -64.5400
-71.0494 -74.7020 -75.0472 -70.1744 -61.9797 -51.5780
-41.2727 -31.9857 -20.8261 -12.3619 -6.9403 -4.6746
-8.7084 -14.7096 -20.4097 -23.9398 -24.5084 -22.0670
-16.6445 -11.8230 -7.4008 -2.7551 2.4629 8.4974
14.5490 21.5153 28.5465 34.9739 40.7597 44.5745
45.1621 44.1275 44.2996 45.0512 46.6338 50.3981
55.3547 59.5390 63.0610 66.2891 66.8415 64.0442
57.1698 47.5259 37.6082 28.1878 20.6925 14.8031
11.7435 10.9162 10.8693 11.7886 12.9223 11.6651
8.5307 7.3132 6.2966 4.4942 1.9970 0.2378
-0.6454 -3.0255 -5.5660 -8.5364 -12.0475 -14.6033
-15.9091 -15.8010 -14.5059 -13.2136 -11.8600 -9.3375
-6.0328 -2.9876 -1.1978 0.0612 2.3746 5.0665
6.0596 5.3801 4.6474 2.7296 -2.9696 -10.5686
-16.0813 -20.2890 -25.8395 -31.7379 -34.8002 -35.7916
-35.2599 -32.2354 -28.4269 -24.0930 -20.6946 -18.1243
-14.6790 -10.7281 -7.0935 -5.6750 -5.3155 -4.7828
-5.0577 -6.8845 -9.5133 -12.4882 -18.4830 -27.1373
-35.4671 -41.9153 -44.9028 -43.6618 -36.9776 -23.1558
-5.4515 9.2643 18.8846 24.9867 26.7675 22.9941
14.2768 1.6617 -13.2794 -28.9992 -43.1310 -53.0803
-59.2572 -62.9963 -63.5569 -59.0995 -50.8147 -40.1552
-27.2139 -14.3420 -5.0649 -1.6467 -1.2907 -1.2294
-2.3487 -4.8784 -6.0500 -3.8087 -0.3661 3.6155
10.1177 20.4122 31.5466 40.0531 46.5805 52.1292
55.7269 55.3213 52.0590 46.8184 38.9383 30.4660
22.7202 14.3281 4.4428 -5.6435 -15.8037 -25.0303
-29.8905 -28.8397 -20.9532 -7.6010 7.0617 20.9763
31.9819 38.5553 39.5980 32.0125 17.4048 1.8581
-9.9504 -17.7747 -22.2429 -21.8067 -16.1048 -7.1026
1.4039 9.2687 17.7121 24.6001 28.6834 32.3910
37.2188 40.4334 41.7275 42.3673 40.7154 35.4695
29.0079 23.4762 17.5328 11.4731 7.0563 3.2369
-2.3199 -8.0273 -11.5951 -13.2849 -13.0911 -10.4506
-4.4639 1.7923 4.4752 4.2832 0.6865 -8.0948
-19.7817 -30.6845 -37.5436 -39.7245 -38.0032 -28.8163
-12.0232 7.2067 23.7466 33.3607 36.8069 36.5275
32.0828 24.3486 16.1837 9.6977 5.9351 4.4337
3.4000 1.6012 -0.3995 -2.6408 -5.6183 -7.5929
-7.7317 -6.2032 -2.4317 4.0219 13.0231 22.6201
31.9286 40.1828 46.3516 51.4515 55.8620 59.2118
60.5311 59.0414 53.5837 43.7408 32.9578 23.7502
15.4005 7.7204 3.6415 5.3728 10.0005 13.9117
15.9214 15.0580 10.2104 3.1720 -5.2345 -16.0138
-26.5210 -35.8881 -45.5265 -54.3692 -59.9828 -63.2767
-67.5106 -71.5813 -74.1299 -76.4037 -78.7874 -79.1794
-77.1886 -76.4334 -75.5872 -70.5332 -64.0824 -58.3840
-50.3435 -40.7682 -33.8523 -30.6521 -29.6058 -30.4556
-32.3842 -31.7182 -27.4808 -20.9777 -12.0115 -1.8405
7.4509 15.0850 21.0438 24.4224 23.1725 18.4799
11.0377 -1.2755 -16.1238 -28.3027 -36.1405 -39.9138
-38.5152 -32.2707 -24.0553 -15.8372 -8.7303 -3.0058
2.2140 6.3271 8.6126 10.2221 13.9081 18.7286
20.5905 21.2231 21.5809 20.5301 19.3937 19.0224
21.0735 24.8063 28.8158 32.8866 36.3093 38.5966
40.0097 41.3246 40.9271 39.8817 39.2617 36.7131
32.2494 25.8626 17.6300 9.2650 3.4766 2.9593
7.5581 14.4884 20.6563 24.3864 25.9914 27.0837
27.0440 23.8249 18.9800 15.0318 11.8073 9.2326
7.4617 7.0291 9.3047 12.9401 16.0151 18.5655
19.9659 18.6565 15.2643 11.2287 6.3253 1.2100
-2.8715 -5.7752 -6.7945 -5.1471 -2.7688 -0.7060
2.2266 5.8512 7.8077 6.5830 4.5003 1.5101
-2.6463 -4.4207 -3.6448 -1.4486 2.0905 4.9960
6.3514 6.6587 4.5427 -0.8285 -8.9394 -19.4195
-30.9216 -42.2723 -52.4875 -60.0459 -64.1843 -63.5886
-56.5294 -44.8678 -32.6042 -22.8414 -16.9268 -15.2767
-17.7893 -21.9384 -25.5090 -28.0531 -29.7600 -28.8011
-23.5272 -15.8742 -7.0126 2.2392 10.4789 16.9306
21.4150 23.1616 20.7031 15.5842 10.8042 8.3620
9.4344 12.4814 17.2677 24.4458 31.0544 35.9434
39.8582 41.7940 39.8591 33.8165 26.1410 18.6808
11.0205 3.0629 -3.6971 -9.4946 -14.2737 -14.4936
-8.7024 -0.3617 7.1156 12.2263 13.5105 10.8484
4.6156 -3.8981 -10.7878 -14.6936 -16.5267 -14.7729
-7.8670 2.1517 12.0461 20.5886 26.7141 28.5553
25.1884 16.2826 2.6979 -11.6665 -22.1430 -26.8266
-27.8269 -27.4908 -25.4504 -21.0255 -15.7931 -12.3100
-11.7260 -12.6200 -14.3971 -17.4595 -19.8990 -22.0060
-21.7645 -18.2444 -13.9529 -6.8919 1.0099 8.7612
16.1682 20.6165 23.9862 25.0505 25.1667 25.6101
26.8376 31.4040 36.9671 43.2747 48.0799 52.3588
55.7167 55.3220 54.3316 51.0142 44.8653 34.7321
21.5484 8.9261 -2.1804 -8.2780 -10.2723 -8.4636
-2.0065 6.1413 11.8162 11.4675 8.3700 4.2515
-3.7918 -13.2229 -20.6317 -25.2189 -26.9474 -25.6208
-20.0739 -11.5376 -2.9915 3.3773 5.0716 0.7034
-8.8304 -20.8147 -31.6814 -39.8572 -42.4842 -37.6483
-25.2693 -5.9934 14.6532 33.4794 50.4681 63.9781
68.5256 61.6277 50.4924 37.2447 21.5682 7.6851
-2.3417 -7.4885 -7.1524 -0.3176 8.1834 13.1140
15.5923 13.9908 6.9605 -4.3091 -18.3634 -32.9909
-45.9638 -55.7220 -61.5006 -61.2636 -53.8475 -41.6263
-27.1592 -12.4812 0.5646 10.6167 16.0492 17.1144
15.0362 10.3409 4.1316 -2.4436 -7.3390 -8.5394
-6.6270 -2.5328 2.3148 6.6892 10.1598 12.2623
14.1810 14.9884 12.7480 9.2459 6.8217 5.4591
3.7477 1.9417 0.1014 -1.9588 -2.6013 -2.8924
-3.8017 -3.7549 -2.6266 -1.6073 -0.6412 1.1864
4.3037 9.4127 16.3213 22.8596 25.6876 24.7873
23.3507 21.3473 17.7452 13.5843 9.0900 3.3133
-2.8068 -6.5216 -8.4700 -11.5251 -15.6301 -19.2223
-22.2657 -24.9747 -26.9204 -29.0112 -32.3655 -35.9911
-37.4078 -35.6729 -34.1030 -34.8366 -35.3458 -33.6578
-29.1167 -22.9830 -17.6758 -12.4434 -7.4589 -4.5786
-3.4647 -5.1301 -10.3652 -16.0122 -18.9898 -19.4080
-17.9471 -14.5252 -9.9264 -5.1355 -1.3045 1.4090
4.7516 8.5267 10.5707 10.2652 8.6655 7.2578
5.7195 3.3682 0.3131 -3.3944 -6.8316 -9.6488
-11.5494 -13.0031 -15.0065 -17.6704 -20.0641 -20.1929
-18.2418 -14.9434 -9.7128 -3.0204 3.2844 8.5060
13.2455 16.9170 18.6157 18.1543 16.2960 13.0751
8.0329 4.0522 3.0285 2.1237 0.5078 -0.0843
-0.3529 -1.7678 -4.0325 -5.8448 -8.2465 -12.5958
-16.2925 -17.9192 -19.1566 -20.0857 -20.2966 -21.0770
-23.3508 -26.3446 -29.2645 -31.7059 -32.1574 -29.9945
-26.5086 -21.8070 -15.3607 -8.7629 -3.6522 0.4726
5.1823 10.8437 15.6958 18.8122 20.9111 22.0989
21.6897 19.4683 16.1167 12.1072 7.3885 3.3988
2.2543 3.3673 5.4752 8.9881 13.2995 16.2338
16.3735 13.3617 7.0019 -1.9021 -10.6942 -18.2058
-25.8516 -32.7432 -36.5706 -38.4253 -39.8384 -39.5464
-37.3556 -35.3837 -34.1905 -32.6359 -30.8047 -28.9446
-25.2487 -18.9953 -11.6676 -3.7739 5.1255 15.3714
26.2273 36.9012 47.9094 59.1610 69.0581 74.3662
72.7539 64.9332 51.7522 35.3628 18.9600 3.6034
-9.3875 -18.5510 -23.0814 -23.9988 -23.2093 -20.3723
-15.9357 -12.2335 -11.2566 -12.3083 -13.8314 -15.7933
-18.8889 -22.3225 -22.8606 -19.5135 -14.3108 -8.6323
-2.3473 3.6791 8.9349 14.5846 19.8269 22.8297
23.6228 22.7090 19.1285 12.6317 5.1417 -0.4899
-3.2972 -4.0461 -2.1319 1.8640 4.7146 4.9831
3.6268 -0.9171 -9.3542 -18.3609 -25.6525 -30.8363
-35.1152 -38.1387 -37.2907 -32.1223 -23.1661 -11.0710
1.3963 11.5889 19.6908 25.2224 26.1308 22.8820
18.1777 12.8687 6.4746 0.6816 -1.6948 -1.1271
0.2842 3.2194 7.4542 11.4970 14.2890 15.8778
17.0881 17.5342 18.6156 20.6334 22.6332 26.1020
31.6426 38.1367 44.5425 50.2741 54.3972 56.1320
55.1028 51.7936 48.3465 45.9808 44.9669 45.5752
47.4714 49.7055 50.6553 48.8421 44.2342 38.1574
30.6945 22.0159 13.9167 7.4073 2.3849 -1.3326
-2.8700 -2.1923 -2.4420 -5.6539 -10.3374 -16.4963
-26.5790 -40.1287 -54.1577 -66.5403 -75.2550 -78.9121
-77.0322 -70.1082 -60.6518 -49.8094 -37.0312 -24.5387
-15.4752 -9.7805 -5.9801 -3.7514 -3.8551 -6.1793
-8.5765 -11.2369 -14.8813 -17.4273 -17.4011 -13.6746
-6.6137 2.4426 12.3405 20.9488 27.1996 29.7230
26.9356 19.3330 8.8357 -0.3368 -4.8194 -4.8590
-0.4693 8.8348 19.8737 27.9413 31.8760 31.3812
24.0544 8.2463 -11.7362 -28.9429 -41.4480 -50.7584
-56.0918 -54.3705 -46.3704 -36.5193 -26.8088 -16.2278
-5.4944 2.9112 8.4662 11.6700 12.4297 10.4110
6.1645 1.0565 -4.2751 -10.0338 -15.9349 -20.4040
-22.6750 -23.2797 -22.3731 -20.2724 -16.9253 -12.3129
-7.5537 -3.6046 -1.2903 -0.6351 -1.4615 -3.8506
-7.2004 -11.9471 -17.4372 -22.2911 -26.6232 -29.9171
-32.1701 -33.3895 -32.1413 -28.2977 -22.4047 -14.4506
-6.5470 -0.3179 5.1164 9.2854 11.1473 11.4708
11.1572 10.0992 9.0781 8.9186 9.4404 11.1256
13.4345 15.1054 16.7555 17.5530 16.2877 14.7521
12.7352 10.4614 9.6278 9.5647 10.2424 11.1743
11.5573 12.0331 12.5937 12.6333 12.6243 13.1894
14.8386 18.0631 21.8626 25.4323 28.5766 30.3583
29.4904 25.6080 18.8643 8.3571 -5.1105 -17.4526
-26.4124 -33.1092 -38.3128 -42.6638 -46.7670 -50.5954
-54.3029 -56.6821 -56.5307 -54.1236 -49.1237 -41.5355
-32.1008 -22.5029 -15.4375 -11.2153 -9.3714 -10.6998
-14.3506 -17.4994 -18.1762 -15.6646 -9.3579 -0.4405
8.8699 17.9360 27.0193 36.1269 44.5396 51.5754
57.3233 61.2318 62.7287 61.7887 58.1326 51.3311
41.6035 31.0666 22.0329 15.2765 10.0514 6.2645
5.6661 7.8407 8.9357 7.1630 3.1121 -3.0531
-10.1681 -17.4012 -23.5637 -27.9751 -30.8202 -31.6926
-31.2789 -29.7748 -26.9901 -24.5532 -24.1954 -24.7695
-25.3075 -26.7522 -28.7204 -29.3539 -28.8403 -27.7615
-25.7086 -23.3898 -21.5729 -20.8871 -20.6041 -20.5510
-20.5951 -19.4848 -16.8308 -13.0358 -8.6911 -3.5064
2.2802 7.7325 12.1674 14.6736 14.5186 11.8628
7.2522 1.2619 -5.4386 -12.5951 -20.2617 -26.8071
-31.1897 -33.3968 -32.5929 -29.5937 -25.3202 -20.4563
-16.1630 -13.1340 -11.3064 -10.1393 -9.6419 -10.1880
-12.2698 -14.3831 -15.5844 -16.7668 -16.4631 -14.0722
-10.5124 -6.3137 -2.1267 2.9741 9.0681 14.7718
20.8180 28.2070 35.3878 41.2808 45.7472 48.6004
50.4200 49.9027 46.3772 42.6254 39.5298 36.3972
34.0567 32.0840 29.4777 26.7326 24.6833 24.8293
27.4176 30.8043 35.2788 40.9924 46.5294 50.8066
52.5414 51.1022 46.7908 40.7311 33.6242 26.5380
21.0289 16.7446 13.6507 12.2646 12.6774 14.5546
16.6373 17.7629 17.4511 15.3179 10.4992 3.3454
-5.2098 -15.7133 -27.8985 -39.9927 -49.9502 -56.6047
-59.8563 -59.2615 -54.7536 -47.9396 -41.2905 -36.0292
-33.0138 -32.8678 -34.7820 -37.4550 -38.8735 -38.3201
-34.9875 -27.3786 -16.6713 -4.5158 7.8091 20.2935
31.7983 39.8632 45.2596 48.7617 50.3902 51.1950
52.0953 53.3507 54.6123 54.7619 53.3984 51.4031
48.3246 43.6735 39.4658 36.0700 31.4117 25.9314
19.7158 11.7798 4.1556 -1.5752 -6.3156 -10.0754
-11.4497 -11.0217 -10.3115 -9.2526 -7.2772 -4.3122
-1.5031 1.1545 3.3210 3.4499 2.2531 0.5255
-2.0466 -5.1918 -8.5380 -12.3266 -16.3487 -19.6318
-21.5144 -23.2808 -25.3365 -26.7180 -28.7043 -32.1370
-35.8617 -37.9984 -38.3823 -36.8458 -32.5155 -26.7874
-21.5469 -17.2571 -13.0791 -10.3899 -10.4386 -11.4317
-11.3335 -10.6729 -10.0520 -7.2898 -3.2236 0.3623
4.0681 7.6333 9.7232 10.3748 10.7406 10.7470
10.2594 8.8148 6.7366 5.1730 3.7968 2.5361
1.6033 0.8472 0.4813 -0.3226 -2.5900 -5.9254
-10.3161 -15.6909 -21.5496 -27.3182 -31.2015 -32.4019
-32.3560 -31.2205 -28.6818 -25.6699 -21.6794 -17.0391
-12.1617 -6.3670 -0.7290 4.0095 8.1632 12.6863
18.1044 24.4137 31.2917 37.5813 42.3198 44.7251
45.6813 45.8688 43.8041 40.6039 37.8931 34.7938
31.8144 29.3226 27.1831 25.9674 25.3798 24.0866
22.3473 20.3529 16.5922 13.0576 9.6294 4.8215
1.0824 -1.8538 -4.1879 -5.2594 -6.8717 -9.0481
-10.3278 -11.0722 -11.9157 -11.7004 -10.3332 -8.9661
-6.8392 -3.8932 -0.8426 2.4459 4.7584 6.0796
7.8270 9.4384 10.9425 12.3862 12.4772 12.1969
11.4408 7.9000 1.3762 -6.1444 -11.7355 -15.4710
-20.3069 -24.9977 -25.5916 -24.6426 -26.4883 -27.0047
-22.6518 -18.8064 -17.6357 -14.1138 -10.2927 -12.5502
-16.8661 -17.0779 -16.3695 -17.9764 -18.2458 -15.7612
-13.3811 -11.0569 -7.6810 -4.0924 -1.3743 0.7660
2.9794 4.6187 4.8377 3.5444 1.2635 -1.4861
-5.0567 -9.9710 -14.4446 -15.8676 -15.1358 -14.4653
-13.3766 -11.3426 -10.0512 -11.0623 -12.9864 -14.0345
-15.5801 -17.0779 -15.5494 -11.7049 -8.4074 -6.2436
-4.6142 -4.3520 -5.5587 -7.0601 -9.0905 -11.8500
-15.0817 -18.8758 -21.9850 -23.8766 -25.2347 -25.5664
-24.7760 -22.9961 -20.2429 -17.3546 -14.5753 -11.8067
-10.2891 -10.1377 -9.8854 -9.8448 -10.2936 -10.0909
-9.0572 -7.6008 -5.5758 -4.0573 -4.0852 -5.1694
-7.0186 -9.2924 -11.1579 -11.3435 -10.0025 -8.2064
-5.2523 -1.5826 1.1021 2.9829 4.4204 5.0413
5.4892 6.8527 8.4425 9.1481 9.9213 10.7315
9.9412 9.3518 11.7625 15.4070 17.8988 20.1122
22.2913 22.3382 19.4696 15.3430 11.0785 6.1336
1.5581 -0.8706 -1.7385 -1.2816 0.8984 3.9680
6.7941 9.0796 10.2800 9.5221 7.4430 4.3987
0.8687 -1.6592 -2.8290 -2.3585 0.0531 3.8229
8.0838 12.3230 15.7017 17.1995 17.2148 16.4388
15.4953 15.0140 15.0942 15.0762 14.3733 13.0584
11.3560 9.8681 8.9462 8.6560 9.0444 9.8141
10.0718 9.5581 8.4019 6.3841 3.7796 1.1886
-0.6616 -1.8322 -2.7677 -3.9690 -5.5488 -6.6997
-7.4053 -8.3146 -10.2711 -13.0243 -15.8217 -19.6221
-23.4720 -25.7034 -27.5509 -29.3218 -29.9057 -28.9324
-27.3553 -25.8476 -23.7595 -21.6164 -20.4440 -19.9033
-18.4739 -15.3990 -11.2706 -6.4762 -1.6322 2.1619
4.7475 6.8392 8.6848 10.2791 11.9589 14.1479
16.5208 18.0015 18.2737 17.5275 15.4295 12.0508
8.5199 6.0227 4.6618 4.7033 6.6634 10.1538
14.2723 17.9754 21.5297 24.9444 27.4543 29.2549
29.5973 28.0905 25.6599 21.9596 17.1553 12.8574
9.3670 6.1939 3.5425 1.6833 0.3414 -0.8797
-2.4703 -4.5242 -6.8628 -9.9621 -13.2596 -15.9866
-18.4010 -20.4062 -21.9463 -23.3126 -24.0885 -24.1930
-24.0173 -22.6637 -20.5188 -18.5650 -16.1597 -13.7381
-11.7293 -9.5547 -7.2963 -5.0811 -3.2373 -2.9768
-4.2061 -5.4723 -6.7529 -7.7694 -7.5739 -6.3293
-3.7050 -0.2507 2.7945 5.7757 7.9260 7.8476
6.2813 5.1881 4.4176 2.3042 0.0071 -1.5295
-3.3112 -5.0965 -6.6475 -8.4066 -10.0126 -11.2499
-11.4914 -9.4565 -6.3834 -3.4851 -0.4967 1.0786
0.2504 -1.6602 -4.5603 -9.0636 -13.5642 -16.9176
-19.0075 -19.5708 -18.6876 -16.4120 -14.1789 -13.1019
-12.2422 -12.5603 -14.5159 -16.1011 -17.7323 -19.2130
-19.0274 -16.9861 -13.3407 -8.2940 -2.6434 1.4030
4.1481 6.0091 7.0022 8.3892 8.9659 8.5955
8.7641 9.4183 10.5701 12.4815 14.3759 16.3522
18.4178 19.4965 20.3184 21.0709 21.1223 21.0088
20.2148 17.9194 14.8598 11.3199 6.5011 1.2976
-3.0318 -6.6998 -9.7188 -11.5663 -11.4590 -9.6692
-8.0561 -7.4676 -6.7809 -6.5538 -7.8551 -9.4989
-10.8183 -11.3635 -11.0688 -10.3370 -8.7230 -6.3222
-3.4689 -0.3967 2.5268 5.1511 7.5420 10.1681
12.8717 15.2284 17.6635 20.3518 23.4059 26.4223
28.3896 29.0051 27.8210 24.5415 20.0399 15.4077
11.3180 8.2116 6.4822 6.3939 7.4933 8.5009
8.9650 8.9082 7.1833 4.0597 0.2359 -4.9253
-10.7327 -16.3094 -21.0758 -24.2877 -26.4299 -27.7619
-27.8304 -27.7259 -28.1918 -28.8208 -30.2222 -31.8741
-32.6221 -32.5780 -30.7999 -26.5435 -21.5544 -17.1349
-13.4814 -11.0634 -10.1037 -11.1040 -13.3777 -14.4655
-14.0140 -12.9911 -10.9941 -8.2814 -5.5688 -2.6894
0.6838 4.5085 8.3359 11.5316 14.1352 15.9953
15.7429 13.7188 11.0846 7.5447 3.9209 2.3330
2.3357 2.7836 4.8167 7.3860 9.0199 10.5177
10.9539 9.8959 8.4738 6.0721 3.2738 1.7373
1.0280 1.6580 3.8533 5.9513 8.3882 11.3387
13.4539 15.1815 16.7442 17.7959 18.7034 18.7683
18.0149 17.6030 17.0533 16.4711 16.6703 16.9857
16.8766 16.6991 16.5333 16.0295 15.4194 15.1112
15.0129 14.7399 14.1460 12.8545 10.4673 7.6185
4.5022 0.9063 -2.5732 -6.1663 -9.6089 -11.9548
-14.2276 -16.1490 -17.3242 -19.3879 -21.7266 -23.6209
-25.4720 -26.4904 -26.0082 -23.9156 -21.6166 -20.4333
-19.6628 -19.7007 -20.8209 -21.7924 -22.5755 -22.2709
-20.1188 -17.3008 -13.5148 -9.6153 -6.1573 -2.3732
-0.5266 0.4810 2.5700 3.2224 3.2314 4.4111
5.1105 5.3240 6.3902 7.3022 7.2148 6.6056
5.5511 4.1182 2.3347 0.6927 0.4206 0.8622
0.6332 0.5458 0.5666 -0.2869 -0.7654 0.1547
1.8093 3.6523 5.9693 8.5449 10.9710 15.6293
21.8468 23.4311 21.6314 24.7820 30.4803 27.9614
21.4250 23.6546 27.7271 23.1184 18.7493 20.4940
21.8350 21.2628 22.1964 24.6991 28.0308 31.0508
31.0526 27.7181 25.7526 26.6925 21.9233 12.9212
10.8439 10.3104 3.1287 -2.9734 -1.3161 0.7071
-0.3752 3.2350 9.6822 10.3581 6.5812 2.8069
-1.1944 -5.3760 -7.7525 -10.0596 -12.5145 -10.9022
-9.3260 -11.7151 -11.4934 -8.4681 -9.1647 -11.1402
-10.9545 -13.0796 -17.7442 -21.1769 -24.2888 -28.0946
-31.5786 -33.8172 -34.9510 -35.7449 -36.1036 -36.7254
-37.3626 -36.3037 -35.7711 -36.2883 -34.2714 -31.1974
-30.1007 -28.6885 -23.7616 -17.9425 -14.1015 -9.8740
-5.3535 -2.9040 -1.0530 1.4344 3.1629 5.5934
10.0030 13.5944 15.5887 18.1626 21.2050 21.6845
19.6171 18.4870 17.8832 15.9231 15.0615 16.5593
18.2572 20.0163 22.2198 23.7555 24.3259 23.3292
20.1461 15.5031 10.4996 6.0341 1.9003 -2.0767
-4.3289 -4.7831 -5.6194 -6.6405 -6.5188 -6.6206
-7.8940 -8.3302 -7.9400 -9.2224 -11.7909 -14.0187
-15.6643 -16.8088 -17.4784 -16.9259 -15.0208 -13.4130
-11.8098 -8.9232 -6.2313 -4.6623 -4.1811 -4.4749
-4.5857 -4.8453 -5.5149 -6.1971 -6.5513 -7.5498
-9.0071 -9.3747 -9.4946 -10.0651 -12.1838 -15.6480
-18.2327 -21.0409 -24.2032 -25.7199 -25.7524 -24.3339
-21.0219 -16.8989 -13.5708 -10.8257 -7.4155 -3.5863
-0.8529 1.2946 5.0968 9.6524 12.9418 15.7698
18.8285 21.2365 23.2021 24.7512 25.3668 25.5578
24.9792 23.7626 22.2558 20.1551 18.4788 17.9760
17.9201 17.0315 14.2342 9.4929 3.9703 -1.6929
-6.9631 -10.9122 -13.9069 -15.5516 -14.8838 -13.7636
-14.0286 -14.3882 -14.3657 -15.4174 -17.0972 -18.0858
-18.2859 -17.9669 -16.9359 -15.6715 -14.9325 -13.5654
-12.0198 -11.4151 -9.8488 -6.4522 -3.1069 -1.2964
0.9332 4.6804 6.8767 7.1804 8.5818 10.6978
11.1304 11.1304 11.9135 11.6810 10.4265 10.2292
11.3683 12.1001 12.9932 15.1110 16.7278 17.0558
16.9927 16.4799 14.5622 12.0902 10.4950 9.1991
7.5138 6.3774 6.8460 8.2213 9.4253 10.4914
11.5557 11.5008 9.1450 5.8700 3.7260 2.4689
1.5586 2.1715 4.9292 7.9590 9.6307 10.5419
11.4539 11.5305 10.3571 8.8530 6.7271 3.2862
-0.5511 -2.9645 -4.5615 -7.1551 -9.3280 -9.9074
-10.6131 -12.1559 -13.2635 -14.6198 -17.6200 -20.9310
-23.3255 -24.8594 -25.4190 -24.6917 -22.4414 -19.1385
-15.2083 -10.9249 -7.4544 -5.3690 -4.1559 -3.3728
-3.0862 -3.7477 -4.5633 -4.8391 -6.0521 -7.9464
-8.7990 -9.2487 -10.2670 -11.2133 -10.7591 -10.0264
-10.7005 -10.5194 -8.9017 -8.2069 -7.4913 -6.1792
-5.1392 -4.3867 -4.3677 -4.5984 -5.6718 -7.7635
-9.7425 -11.1034 -11.0574 -10.1436 -8.6836 -6.1819
-2.8988 0.6484 4.2559 7.5453 10.0065 12.0541
13.1887 12.8498 11.6791 10.2868 9.3558 9.0620
9.6496 11.3556 13.0472 13.7528 13.8366 13.8492
13.0895 11.1321 9.7136 9.7722 10.1390 10.2417
11.1114 12.5046 13.2058 13.6573 13.3941 11.8675
10.5878 9.5874 7.8553 6.6558 6.9172 6.9938
5.8402 4.6137 3.4304 1.6000 0.6610 0.9304
0.8295 0.8016 1.8019 2.8644 3.1528 3.2078
3.2772 3.5394 3.7278 3.5845 3.9035 4.6948
5.2905 5.5563 5.7203 5.0679 3.2366 1.4405
-0.4511 -3.0601 -5.1275 -5.6430 -5.7088 -6.0269
-5.3483 -3.8856 -3.9028 -5.3438 -6.2585 -7.3481
-9.9580 -12.6057 -14.3036 -16.5070 -19.3684 -20.8004
-20.3471 -19.7036 -19.0169 -17.2695 -15.5139 -14.5875
-12.9148 -9.6957 -5.7079 -1.7489 2.0182 5.7564
8.5177 9.8001 10.6256 11.7404 12.9038 13.4815
13.8582 14.3827 14.1592 12.6362 10.9626 10.0587
8.7970 7.1902 6.9649 8.0013 8.2617 7.3776
6.8666 6.4602 4.7921 2.8058 1.2963 -1.3334
-4.8842 -7.2336 -8.3277 -9.7039 -10.9917 -11.1945
-11.5621 -12.1011 -12.0569 -13.0185 -14.5172 -14.3910
-13.3925 -12.8536 -12.3904 -11.2278 -9.9138 -9.3686
-9.1055 -8.5242 -7.8789 -6.8867 -5.5908 -4.8103
-4.1308 -3.1836 -1.9643 -0.0871 2.0641 3.7079
5.1570 7.2190 9.3449 10.5697 12.0621 14.3079
15.3704 15.7732 16.8745 17.2422 15.6426 13.6779
12.8533 11.7503 9.3296 6.5737 4.2486 1.4161
-2.4663 -5.8368 -7.6473 -8.2809 -8.6044 -8.3962
-7.7122 -8.1340 -9.5255 -10.5366 -10.3942 -8.9469
-6.2018 -2.7403 0.1896 1.8928 2.1560 1.3584
0.1724 -0.1583 1.7685 6.1339 12.0765 17.9388
21.5554 21.4986 18.3038 13.6554 9.1773 6.8873
8.2986 12.2378 16.1535 18.7878 19.3573 17.4017
13.9203 10.6562 8.9952 8.6690 9.3107 11.4925
14.2276 15.0847 12.4198 6.8972 0.2193 -6.5353
-11.6938 -13.3772 -11.5063 -7.6870 -4.4598 -3.7001
-4.7725 -6.5749 -8.7928 -10.7340 -11.6199 -10.9791
-9.7093 -9.0253 -9.3867 -11.1152 -13.4836 -14.9165
-14.2559 -11.9831 -9.4191 -7.4653 -6.4217 -6.4010
-7.7636 -10.1176 -12.3976 -13.6801 -13.3854 -11.9533
-10.9170 -11.1486 -12.0047 -12.8320 -13.8594 -15.6240
-18.5268 -22.3208 -25.5877 -27.3388 -28.3247 -28.9663
-29.0384 -28.7221 -27.8723 -26.4583 -24.7947 -23.6456
-23.5339 -23.3005 -21.7720 -18.9584 -15.3825 -11.6560
-8.2927 -5.1204 -1.8824 0.9627 2.8192 3.0157
1.7405 0.1192 -0.1998 1.6792 4.8136 8.4121
12.2026 15.5569 17.4341 17.2016 15.2640 12.4621
8.9979 5.0479 1.5792 -1.2245 -3.2000 -4.1570
-4.3084 -3.2711 -1.5967 -0.0764 1.2322 2.2839
2.1487 0.7636 -0.0710 -0.1277 0.5022 2.3398
5.1308 8.1084 10.5398 11.9385 11.8024 10.2262
8.2048 6.9206 6.5187 6.8836 7.6587 8.3328
8.9690 9.5521 9.3043 7.6929 6.3429 6.2294
6.1726 5.2110 3.7447 2.7390 1.7855 0.0336
-2.1104 -3.8335 -5.3169 -6.5966 -6.6516 -5.4124
-3.5415 -1.3056 1.2592 3.7889 6.0707 8.4652
10.2172 10.5876 9.9288 8.6374 7.3423 6.1627
4.6099 2.9021 1.7197 1.2439 1.4250 2.3731
4.1376 5.8211 6.2726 5.9301 5.0136 3.4302
2.0153 1.0140 0.1723 -0.9650 -2.7827 -5.0754
-7.4375 -9.3814 -10.4421 -10.4655 -9.4787 -7.1734
-4.0120 -1.0065 1.7783 4.0205 5.1956 5.5111
5.5913 5.9454 6.3005 6.4528 6.8890 8.0380
10.0045 12.8775 16.1201 18.9048 20.7135 21.4444
21.4092 19.8916 17.2087 14.7061 12.5675 10.8201
8.9789 7.1891 5.9400 4.9532 4.2899 3.9448
4.0655 4.8487 5.7949 6.8250 8.1804 8.9104
8.3354 7.2071 6.1563 4.9712 3.7267 3.2490
3.5095 3.5104 2.5001 0.7959 -1.0443 -2.8855
-4.2220 -4.9213 -5.3179 -5.9577 -7.2329 -8.8245
-10.6431 -12.8610 -15.3384 -17.6635 -19.4028 -20.5059
-20.9097 -20.2743 -18.9982 -17.5103 -16.0359 -15.4799
-15.8296 -16.4316 -17.0759 -17.6554 -17.4833 -16.3955
-15.2465 -13.9677 -12.7961 -12.1058 -11.7813 -11.4948
-11.0631 -10.9694 -10.8657 -10.8612 -11.3713 -11.8886
-12.1689 -12.7682 -13.8091 -14.5219 -14.7139 -14.4516
-13.8929 -13.0827 -11.9201 -10.3556 -8.3027 -6.0947
-3.8606 -1.7924 -0.1242 1.2249 2.2063 2.8669
3.6311 4.6675 5.6786 6.8529 8.0686 8.5246
7.9506 7.0773 5.9571 4.4584 3.8978 4.2241
4.9703 6.5924 8.6247 10.4163 12.0060 13.2226
13.5516 13.5083 13.7111 13.3452 11.9456 11.0273
10.5902 9.4015 8.7202 9.0699 8.9419 8.4976
9.0825 10.0810 10.4280 10.9903 11.9420 12.1294
11.8311 12.0781 12.4503 11.9303 10.9290 9.2032
6.3842 4.0456 2.4370 1.5637 2.0630 3.2643
4.6656 6.0715 7.0917 7.5567 7.0881 5.8219
4.1177 1.9773 0.4228 -0.7768 -2.9018 -4.8854
-6.1227 -7.5025 -8.6317 -9.4347 -10.2827 -10.9460
-11.4480 -11.7553 -12.2212 -12.8232 -13.0476 -13.7460
-15.0014 -15.6079 -16.0513 -16.6137 -16.4920 -15.7116
-14.3985 -12.4474 -10.1646 -7.8819 -5.6514 -3.6787
-2.2989 -1.5599 -1.2508 -1.6194 -2.3620 -2.6351
-2.4620 -1.9213 -1.0120 0.4507 2.5604 4.7134
6.8321 9.0563 10.8857 12.2637 13.3136 13.9715
14.2067 13.5993 12.1826 10.3856 8.2461 5.7849
3.2994 0.8868 -1.2481 -3.1983 -5.4892 -7.8125
-9.8610 -11.7346 -13.4829 -14.8149 -15.6034 -16.4857
-17.6023 -18.3278 -18.8902 -19.9211 -20.7268 -20.5664
-19.8608 -18.7802 -16.6651 -13.7884 -11.0524 -8.6155
-6.4202 -4.8953 -4.2482 -4.1311 -4.9755 -6.4526
-7.5133 -8.0973 -8.0036 -6.9456 -5.5181 -4.1861
-2.4801 -0.7525 -0.0243 -0.2857 -0.9156 -2.0403
-4.0734 -5.9957 -7.2304 -8.2866 -8.8462 -8.6164
-7.5395 -6.4012 -5.2279 -3.1893 -1.2869 0.2524
1.5510 2.0413 1.7015 0.7030 -0.4217 -1.2482
-1.5221 -1.1526 -0.7525 -0.4461 0.0550 0.1893
0.0144 0.0171 0.0694 0.1911 0.5822 1.0283
1.2833 1.3041 1.1094 1.0076 0.9742 0.9436
1.1283 2.5713 2.5713 3.4338 3.8519 5.3398
7.5856 9.6070 11.6275 13.1217 13.7003 13.2263
12.1962 11.3373 10.5920 10.0270 10.3667 11.5798
12.4954 13.4921 14.8881 15.4676 15.2828 15.1107
14.6240 13.5624 12.5999 11.8150 10.6380 9.2682
8.2155 7.3414 6.1824 4.8360 3.5374 1.7070
-0.7830 -3.2658 -5.8983 -8.7127 -10.7954 -12.2653
-13.8460 -14.9698 -15.2438 -15.4718 -16.0071 -16.5352
-17.4499 -18.5981 -19.1361 -19.1622 -18.5305 -16.7749
-14.0218 -11.0315 -8.2081 -5.5342 -3.3325 -1.5274
-0.0954 0.8148 1.3123 1.5944 1.9071 2.0233
1.8007 1.9053 2.4163 3.1769 4.5359 6.4762
8.2651 8.9933 9.3790 9.8062 9.4907 9.0185
9.0591 9.0924 9.1366 9.7566 9.8764 9.0717
8.7040 8.0875 6.1427 4.0709 2.5055 0.6274
-1.0201 -1.2228 -0.7578 -0.3883 0.2786 0.9635
0.8319 -0.2108 -1.4878 -2.9468 -4.5546 -6.0921
-7.3979 -7.9017 -8.6749 -10.1745 -11.4822 -13.4225
-15.7710 -16.9507 -17.3373 -17.7888 -17.2805 -15.5268
-13.9776 -12.6285 -10.6044 -8.3793 -6.7319 -4.7637
-2.0375 -0.0954 0.9770 2.3000 3.2507 3.2859
3.4661 4.0645 4.3205 3.7698 2.7524 1.6908
0.4714 -0.8443 -1.9970 -2.4683 -2.2421 -1.3382
0.5345 3.0128 5.3569 6.9736 7.4720 7.1962
6.6879 5.5533 4.2673 3.8248 3.6247 3.7815
4.7053 5.3641 5.9219 6.7231 8.0055 9.4555
9.8115 10.2198 11.2147 11.0840 10.2144 9.7016
8.4813 6.3599 4.5647 3.0480 1.3609 0.4164
0.5597 0.5282 0.8553 2.0710 2.5919 2.6821
3.0344 3.0840 3.0552 3.4355 4.0952 4.9828
6.3887 7.9586 9.7529 11.8600 13.3415 14.5104
15.8397 16.6084 16.9824 16.9112 16.4750 16.6219
16.6859 16.5246 17.0987 17.7160 17.6241 17.6295
17.6133 16.8707 16.3705 16.0118 15.5828 15.7261
15.4675 14.6690 13.6831 11.8500 9.9377 8.1560
5.2937 2.4919 0.7994 -0.6759 -1.6293 -1.9375
-2.2971 -2.8604 -4.0256 -5.3937 -6.3309 -7.8143
-10.1566 -12.0617 -13.5757 -15.2060 -16.3578 -17.2680
-18.2431 -19.0560 -19.6625 -20.0969 -20.3204 -20.2852
-19.9599 -19.1488 -18.1989 -17.2977 -15.8243 -14.4337
-13.2225 -10.8388 -8.7381 -7.3160 -4.9242 -2.9902
-2.3314 -1.5437 -0.8840 -0.9606 -1.0309 -0.9570
-0.5209 0.2190 0.7967 1.8457 2.6703 2.3107
1.5285 0.5011 -0.3100 -0.0766 0.7174 1.9854
3.5210 4.3826 5.0522 5.9768 6.4238 6.5779
6.6807 6.5617 6.1291 5.3090 4.5169 3.3732
2.1692 1.9926 2.5387 3.7238 5.2108 6.3211
6.9907 6.7005 5.9786 5.3946 4.3294 3.4607
3.1624 2.6982 2.4234 2.4801 2.4035 2.4513
2.6649 2.5423 2.3044 2.0773 1.6429 1.1851
0.5101 -0.4488 -1.9718 -3.8535 -5.2630 -6.6707
-8.3542 -10.2269 -12.0744 -13.6578 -14.9195 -15.0583
-15.0808 -15.3196 -14.4896 -13.4830 -13.2000 -13.2405
-13.4109 -14.0039 -14.5680 -15.0754 -15.6729 -16.0442
-16.6273 -17.1058 -17.2870 -17.2987 -16.8066 -16.1821
-15.3557 -13.9155 -12.7250 -11.7905 -10.0827 -8.2073
-6.6509 -4.9774 -3.0929 -1.4257 -0.3641 0.6290
1.8826 3.2407 4.7575 6.4589 7.7080 8.2397
8.5533 8.7723 9.1770 9.6348 10.1557 11.2254
12.0599 12.5862 13.0585 12.5772 11.4696 10.1467
8.4461 6.3634 4.1663 2.4540 0.8579 -0.6967
-1.4942 -1.5068 -1.0238 -0.0793 1.0967 2.4062
4.0599 5.9155 7.4674 8.5840 9.5041 9.8943
9.8475 10.0214 10.3287 10.7874 11.7238 12.8999
14.0642 15.2790 16.0928 16.0126 15.2583 14.0426
11.9157 8.8435 5.9254 3.1145 -0.3200 -3.4264
-5.5434 -7.2007 -8.6976 -10.1584 -11.5301 -12.5737
-13.4875 -14.5419 -15.7279 -16.8130 -17.2311 -17.1545
-16.3146 -13.9246 -10.9055 -8.0028 -5.1937 -2.7262
-0.9887 -0.0830 0.6542 1.3761 1.5014 1.2589
1.3806 1.7032 1.6302 1.5626 2.2223 2.5567
1.5239 0.2244 -0.9661 -3.4580 -6.3491 -8.0055
-9.7475 -11.3832 -11.2336 -10.1233 -9.4357 -8.7922
-7.5630 -7.0664 -7.7261 -8.0019 -8.1064 -8.6579
-8.4957 -7.0889 -5.2946 -3.1588 -0.0902 3.4245
6.1768 7.9765 9.5239 10.5044 10.6549 10.5549
10.0015 8.7678 7.2438 5.8614 4.8385 3.5921
2.5873 2.0105 0.8885 -0.5453 -2.2684 -3.8086
-5.0315 -6.5591 -7.4359 -7.6153 -7.8505 -7.4089
-6.4185 -5.8543 -5.1424 -3.6427 -2.3856 -1.9485
-1.3546 -0.6616 -0.3533 0.1423 0.9588 2.0195
3.2181 4.3221 5.5099 6.8167 7.5926 7.5241
7.3889 7.3448 6.8978 6.3390 5.9767 5.6235
5.0386 4.1049 2.9496 1.5410 -0.0433 -1.7412
-3.5815 -5.1514 -6.4392 -7.7387 -8.8752 -9.5736
-10.0936 -10.7380 -11.4121 -12.1186 -13.1685 -14.4879
-15.5756 -16.5688 -17.3051 -17.1185 -16.2633 -15.1737
-14.0454 -13.0631 -11.7744 -10.4298 -10.0278 -9.7962
-8.3128 -6.3888 -5.0901 -3.5860 -1.0680 1.8384
3.5660 4.3753 5.5829 6.1822 5.6297 5.5108
6.4354 7.2808 8.0206 10.3593 13.7028 15.9936
17.7366 19.6129 20.6141 20.2653 19.2028 17.7690
15.8566 14.0605 13.3684 13.4315 13.1494 12.9088
13.5342 13.9235 12.8304 11.0244 9.2625 7.2393
4.8132 2.4142 0.3063 -1.1627 -1.6935 -2.0873
-2.4667 -1.9224 -0.5156 0.8822 2.0691 3.4046
4.1788 3.9535 3.8652 4.2347 4.3563 4.3428
4.8637 5.9668 7.1969 8.2784 9.1850 9.9789
10.5945 10.9045 10.9622 11.1397 11.5344 11.6714
11.4578 11.1559 10.2574 8.2702 5.4675 2.6377
0.5226 -1.5754 -3.6203 -4.4278 -4.6621 -5.4560
-6.4329 -6.7835 -7.1016 -8.2173 -8.7436 -8.1516
-8.0849 -7.9136 -6.3906 -4.7738 -3.3454 -1.2600
1.0110 3.3235 5.6973 8.0071 10.2610 11.5074
11.6534 11.1586 9.6392 7.8917 7.3222 7.4294
7.6015 8.0819 8.4541 8.7028 8.6271 7.7737
6.6102 5.1611 3.3235 1.2417 -0.7202 -2.0558
-2.8957 -3.3806 -3.6356 -3.1454 -2.0162 -1.5349
-1.0519 -0.0713 -0.0894 -0.8662 -0.8545 -0.7004
-1.5520 -2.2261 -1.3538 -0.0245 0.7929 2.0780
3.8183 4.4987 4.6005 4.9006 4.0445 2.6242
2.2069 1.8969 1.3553 1.7067 2.1717 1.8536
1.5391 0.9957 -0.3769 -1.8431 -2.6317 -3.1598
-3.6068 -3.4148 -2.9255 -3.1553 -4.1791 -5.4804
-7.0098 -8.5490 -9.3934 -9.7305 -10.0504 -9.5205
-8.3940 -7.6316 -6.7259 -5.8508 -5.7309 -5.8815
-5.9265 -6.2077 -6.6322 -7.1522 -7.3486 -6.8872
-6.6898 -6.9016 -6.9151 -7.0080 -7.5829 -7.8227
-6.9458 -5.7742 -4.6396 -2.5560 0.0278 2.0933
3.7101 4.6726 4.9799 4.5788 3.6551 2.6908
1.3102 -0.1741 -1.2493 -2.1234 -2.6642 -2.5677
-2.0468 -1.7810 -1.6422 -1.1429 -0.9392 -1.3024
-1.4151 -1.2979 -1.4980 -1.4466 -1.0708 -0.6256
0.4297 1.5643 2.6809 4.0327 4.9772 5.5792
5.6188 5.2538 4.9754 4.2427 3.6911 3.7984
3.6984 3.9363 4.9033 5.5431 5.8135 6.3155
6.2947 5.0502 3.6596 3.0044 2.6863 2.6061
3.2450 4.1237 4.1057 3.4325 2.6674 1.2498
-0.7365 -2.1334 -2.4866 -1.9838 -0.5355 1.6184
3.8128 5.6486 7.1094 7.9917 8.0043 7.7330
7.4663 6.3704 5.0357 4.4022 3.4649 2.3177
1.7950 1.4453 0.9325 0.3008 -0.1976 -0.5653
-1.0582 -1.4494 -1.7459 -2.0937 -2.1172 -2.3803
-3.4203 -4.3837 -5.0515 -5.8067 -6.7070 -7.2045
-7.4667 -8.7086 -10.2686 -10.8904 -11.2527 -11.9827
-12.0313 -11.3744 -11.0634 -10.8192 -10.2217 -9.3809
-8.7221 -8.2553 -7.6362 -7.2712 -7.1216 -6.6917
-6.1185 -5.7689 -5.8608 -5.8608 -5.6148 -5.5345
-5.2633 -4.8235 -4.6496 -4.6928 -4.6847 -4.5982
-4.5549 -4.4134 -4.0142 -3.5934 -3.3780 -3.2581
-3.3122 -3.6033 -4.1386 -4.6234 -4.6297 -4.3224
-3.7826 -3.1310 -2.6813 -2.4705 -2.6840 -3.5573
-4.6919 -5.5913 -6.2961 -6.8909 -7.1486 -6.7746
-6.2790 -6.1149 -5.8148 -5.4417 -5.1308 -4.7703
-4.3062 -3.5780 -2.9445 -2.4119 -1.3422 0.1088
1.0181 1.4930 2.0175 2.2338 2.1320 2.4024
3.5640 5.4097 7.6555 9.9806 11.7992 12.7879
12.4697 10.5484 7.8357 5.2096 2.8872 1.1055
0.2647 0.1881 -0.0958 -1.0970 -2.1190 -2.7904
-3.5826 -4.3198 -4.7595 -4.9533 -4.9100 -5.0398
-5.3814 -5.6364 -5.7166 -5.4643 -5.2678 -5.4436
-5.6698 -6.3835 -7.8128 -9.0574 -9.7477 -10.0244
-9.9460 -9.4882 -8.7771 -8.2310 -7.6137 -6.8936
-6.7386 -7.0207 -7.4415 -8.5167 -9.9100 -10.9247
-11.7142 -12.2369 -12.4748 -12.3955 -12.0512 -11.4168
-10.3543 -9.0772 -7.8128 -6.4899 -4.9155 -3.4510
-2.1235 -0.5221 1.6246 4.3652 7.5176 10.8674
13.9134 16.3864 17.8022 18.4510 19.1927 19.9975
20.8987 21.9883 23.3644 24.2269 24.6261 25.0352
24.7063 23.6357 21.8369 19.9092 17.8319 15.0598
12.7941 10.8511 9.0019 8.3890 7.7771 6.8903
6.8327 6.5821 5.6431 4.6679 3.7190 2.3347
0.9505 -0.3824 -1.5990 -2.1929 -2.6210 -2.6724
-2.0163 -1.1322 -0.7411 -0.5311 0.0258 0.7864
1.7561 2.5663 3.1431 3.6676 3.4126 2.0896
0.4097 -1.5053 -3.5294 -5.3219 -6.8053 -7.8823
-8.7303 -9.1674 -8.9232 -8.6582 -8.4960 -7.9336
-7.6038 -7.8147 -8.0923 -8.6807 -9.6387 -10.5805
-11.4493 -12.2027 -12.3378 -11.4285 -9.9019 -8.0355
-5.8501 -3.8719 -2.4327 -1.5603 -1.1052 -0.7357
-0.3788 -0.0868 0.4674 1.5651 3.0070 4.6859
6.6028 8.5134 9.9039 10.4699 10.6826 10.8962
11.1116 11.5513 12.0335 12.6625 13.7052 14.9435
16.3836 17.7444 18.5934 18.6123 17.9391 17.1406
16.0195 14.4613 13.0410 12.0398 11.4928 11.5297
11.9028 12.1209 12.2344 12.1542 11.3846 9.8598
8.2160 6.8741 5.0131 2.6321 0.6918 -0.8952
-2.4859 -4.1847 -6.0114 -7.6137 -8.6682 -9.1476
-8.7799 -8.1644 -7.7354 -6.8063 -5.8879 -5.6762
-5.7663 -5.8366 -5.9925 -5.9123 -5.5437 -4.6028
-3.9044 -3.3339 -0.9619 0.0041 0.0961 1.9976
2.5320 2.8772 3.4747 3.5162 4.8337 4.9698
4.2903 4.9473 4.8481 4.0488 3.7189 2.9096
1.2478 0.2907 -0.2725 -1.1368 -1.4441 -1.9767
-2.5877 -2.8094 -3.0717 -2.6661 -2.1678 -2.2227
-1.5658 -1.0268 -1.7145 -2.6058 -3.5394 -5.5806
-7.7480 -9.0043 -10.7680 -11.4547 -11.1321 -11.4727
-11.0176 -10.7572 -11.3213 -11.4042 -11.1474 -11.1997
-11.1186 -10.0128 -8.4609 -7.4038 -6.1502 -3.9927
-2.2624 -1.3315 0.8251 2.0670 1.6678 3.1511
3.7721 3.6189 4.3380 3.5116 2.9042 1.9399
-0.1374 -1.1044 -2.3111 -3.9585 -4.5154 -4.9669
-5.5563 -5.2301 -4.8074 -4.5983 -4.3163 -5.5347
-7.7174 -9.3847 -10.5373 -10.7491 -10.4229 -9.5216
-7.7805 -5.4581 -2.4264 0.5232 2.7077 3.8658
4.2515 5.0130 6.0061 7.1011 8.8684 10.5212
12.3353 14.0170 14.1828 13.9097 13.5321 13.1284
13.4294 14.0026 14.6550 14.3946 12.8986 11.3368
9.5731 7.6139 5.2509 2.9042 1.8606 1.2135
0.8170 0.8602 1.2306 2.4211 3.5206 4.3614
5.4591 6.9515 8.8404 10.8781 12.2866 12.0145
10.9781 9.5019 7.2083 5.6745 4.8427 3.2493
1.9615 1.6758 0.9918 0.4646 0.9080 1.3838
1.3739 0.6349 -0.8367 -2.7870 -4.9670 -6.9668
-8.4447 -9.3937 -9.9209 -9.9443 -9.5505 -8.9999
-8.3150 -7.6742 -7.4138 -7.3894 -7.8031 -8.5844
-8.7710 -8.6070 -8.5439 -7.9148 -6.6342 -5.0066
-3.0627 -1.0215 0.5971 1.6308 2.1751 2.3049
1.9615 1.3144 1.2856 1.7668 2.5842 4.0478
5.6835 6.9893 7.8680 8.5142 8.3222 7.0921
5.8259 4.5398 3.1727 2.7149 3.0078 3.1583
3.1925 3.0979 2.6779 1.8894 0.7214 -0.4754
-1.5866 -2.7554 -3.4349 -3.5332 -3.5755 -3.4539
-3.3016 -3.6098 -4.3226 -5.2302 -6.2467 -7.2939
-8.2708 -9.2279 -10.0651 -10.3806 -10.6023 -10.9465
-10.4950 -9.7506 -9.6362 -9.5163 -9.2477 -9.2198
-9.2135 -9.2378 -9.3289 -9.3379 -9.6893 -9.8705
-9.4469 -9.1027 -8.3285 -6.9875 -5.2275 -3.0862
-1.5821 -0.7115 -0.5241 -1.5325 -2.9303 -4.0027
-4.5660 -4.1424 -3.0258 -1.9453 -0.8827 0.0076
0.4483 0.7016 0.9404 1.0801 1.1387 0.9782
0.5141 -0.4772 -1.8326 -2.8366 -4.1046 -5.5564
-6.4720 -7.0281 -7.0362 -6.8199 -6.3324 -5.6970
-5.8863 -6.6613 -7.4652 -8.0095 -7.8518 -7.3345
-7.0434 -6.7145 -6.0710 -5.3582 -4.6471 -3.4963
-1.6641 0.0338 1.0539 1.8100 2.3327 2.3436
2.2931 3.0168 3.9333 4.4244 5.1400 6.4179
7.7868 8.6412 9.6244 10.7446 11.1330 10.7969
10.2994 9.8488 8.6033 7.5696 7.7201 7.4840
6.2187 5.0129 4.3902 3.3033 1.8524 1.4072
1.4432 0.8169 0.7268 1.4802 1.3351 0.6664
0.0076 -1.1468 -2.1967 -2.9664 -3.6819 -3.8748
-3.4449 -2.7708 -2.1120 -1.2370 -0.1420 0.5051
0.5916 0.4591 0.2942 0.1824 -0.1375 -0.5737
-0.4304 -0.0717 -0.2321 -0.1375 0.3762 0.5330
1.0043 1.8389 2.2083 2.3724 2.6022 2.7211
2.6617 2.9879 3.7197 4.3181 4.7849 5.1931
5.4752 5.3067 5.1147 5.0922 4.8137 4.5289
4.1549 3.9693 4.2712 4.6137 4.8561 4.9201
4.9390 4.9444 4.6155 4.0594 3.3249 2.3588
1.4522 0.6402 0.1626 0.3978 0.9466 1.6334
2.7139 3.9044 4.6650 5.0066 5.2256 5.0570
4.7407 4.4109 3.6647 2.9095 2.0939 0.8736
-0.6161 -1.8381 -2.5852 -3.1926 -3.4846 -2.9980
-2.1842 -2.1977 -2.3977 -2.1607 -2.5428 -3.5179
-4.2479 -4.9184 -5.7484 -6.2820 -6.4162 -6.3279
-6.1783 -5.8223 -5.2627 -4.6183 -3.5810 -2.7339
-2.3257 -1.6705 -1.2947 -1.6696 -2.1409 -2.6402
-3.4387 -4.1930 -4.5796 -4.6418 -4.6634 -4.5589
-4.1912 -4.0641 -4.1272 -4.1840 -4.7391 -5.7647
-6.8146 -8.0528 -9.4713 -10.4897 -11.1800 -11.6432
-11.4747 -10.7835 -9.8733 -8.8522 -7.7681 -6.6704
-5.7295 -4.9103 -3.8884 -2.8574 -2.1076 -1.2037
-0.0682 0.9349 1.8118 2.8454 4.1324 5.4301
6.9423 8.7330 10.0028 10.8283 11.7800 12.2964
12.1360 12.0035 11.8882 11.3844 11.0311 11.1726
11.2077 11.0167 10.9022 10.6319 10.1020 9.6793
9.6604 9.9947 10.4075 10.8689 11.1068 11.1014
11.3015 11.5033 11.6520 11.8431 11.9296 11.9765
12.0359 12.1459 12.2856 12.1720 11.6701 11.0662
10.4066 9.6279 8.7555 7.9535 7.6209 7.6182
7.7110 7.9796 8.2355 8.3581 8.4617 8.3978
8.1301 7.7372 7.1487 6.8134 6.4971 5.5175
4.4415 3.6223 2.8616 2.1524 1.4747 1.0214
0.6582 0.0508 -0.5954 -1.2866 -2.1707 -3.0692
-4.0542 -4.9644 -5.6115 -6.1405 -6.4100 -6.4559
-6.4758 -6.4668 -6.4605 -6.3848 -6.1748 -6.2234
-6.5154 -6.4866 -6.2964 -6.1631 -5.6926 -4.7554
-3.7974 -3.0395 -2.1338 -1.2407 -0.9919 -0.9108
-0.6495 -0.7856 -0.9063 -0.6909 0.0030 1.2097
2.0280 2.9653 4.2170 4.7857 5.0507 5.4201
5.7202 5.7887 5.7239 5.8780 5.8446 5.5058
5.3913 5.5193 5.5770 5.5058 5.4328 5.1471
4.5505 3.8629 3.3366 2.7850 1.8973 1.1511
1.0123 0.9583 0.4941 0.1535 -0.1899 -1.1713
-2.4132 -3.2278 -4.0209 -4.9906 -5.1627 -5.0032
-5.2060 -5.3159 -5.1763 -5.1015 -5.4989 -5.8765
-6.0594 -6.4830 -6.6587 -6.4100 -5.9792 -5.0122
-3.8019 -2.9052 -1.8373 -0.7748 -0.4467 -0.5143
-0.7306 -1.2218 -1.7850 -2.0653 -2.0320 -1.6003
-0.4747 0.8717 2.2262 3.8304 5.0668 5.5508
5.7905 5.7049 4.7469 3.3518 2.2253 1.4909
1.0457 0.9772 1.4539 2.0757 2.7787 3.3545
3.0571 1.8865 0.2661 -1.4489 -3.3333 -5.3286
-6.8525 -7.7186 -8.3648 -8.7622 -8.6054 -8.4567
-8.4468 -8.4486 -8.9073 -9.4579 -9.7571 -10.0951
-10.3024 -10.0689 -9.4687 -8.8136 -8.0647 -7.0724
-6.2668 -5.5827 -4.4454 -3.2297 -2.4447 -1.9464
-1.4282 -1.0253 -0.8748 -0.7081 -0.7351 -1.3227
-2.3321 -3.4352 -4.7167 -6.0847 -7.4194 -8.9226
-10.2059 -11.1089 -11.5271 -11.1369 -10.4781 -9.8274
-9.0254 -8.6441 -9.2164 -10.1897 -11.2450 -12.6158
-13.7954 -14.3470 -14.1343 -13.1195 -11.5587 -9.9671
-8.8154 -7.8961 -7.2040 -7.0670 -7.1626 -7.1157
-7.0770 -7.0986 -6.8553 -6.3281 -5.9919 -5.6711
-4.7690 -3.7551 -3.0594 -2.3105 -1.6283 -1.1822
-0.8316 -0.7460 -0.8713 -1.1263 -1.3507 -1.3741
-1.7103 -2.1104 -2.3474 -2.8539 -3.3991 -3.7659
-3.9714 -3.9984 -3.8732 -3.8669 -4.0255 -4.2292
-4.3526 -4.3995 -4.4635 -4.3490 -4.4959 -4.8420
-5.1790 -5.5756 -5.6774 -5.9793 -6.3344 -6.1857
-6.2217 -6.4245 -6.2154 -5.8153 -5.2178 -4.4824
-3.8443 -3.0549 -2.1798 -1.4246 -0.7487 0.0218
0.7572 1.2799 1.8522 2.5695 3.1661 3.5068
4.1187 5.0803 5.7292 5.9328 5.9581 5.8743
5.6616 5.4155 5.0884 4.5522 4.0006 3.5122
2.9426 2.3424 1.5295 0.5950 0.1534 -0.0223
-0.5712 -1.2237 -1.4742 -1.3075 -0.6928 0.2444
0.7833 0.8518 0.9077 0.9906 1.0375 0.6427
0.2886 0.2309 -0.1620 -0.1837 -0.1846 -0.7226
-0.7208 -0.4378 -0.0377 0.7509 1.2258 1.5881
1.7548 1.3745 1.1501 1.1384 1.0104 0.8843
0.9383 1.3078 1.9450 2.5154 2.7434 2.5839
2.1964 1.9675 1.7936 1.4358 1.0248 0.5075
0.2047 0.1876 0.2327 0.6454 1.0149 0.9275
0.8149 0.8572 0.7401 0.3516 -0.0269 -0.7172
-1.9401 -2.8242 -2.8963 -2.5512 -1.6346 -0.1206
1.3385 2.7038 4.2034 5.5606 6.4690 7.2648
7.9398 8.2002 8.4183 8.7626 9.0321 9.3817
10.0414 10.9003 11.7546 12.1331 12.1331 12.2025
11.8862 11.3364 11.0327 10.5434 9.9729 9.6223
9.1303 8.2101 7.0791 6.1878 5.5894 4.6531
3.4869 2.8669 2.2604 1.5142 1.3312 1.5394
1.4637 1.2411 1.4240 1.3483 0.6923 0.1606
-0.1882 -0.7307 -1.0290 -0.6965 -0.3378 -0.1981
-0.2125 -0.2928 -0.5036 -0.9173 -1.1642 -1.5833
-2.2331 -2.5845 -2.6656 -2.5953 -2.2961 -1.7022
-1.3643 -1.2940 -1.0218 -0.9723 -1.1435 -0.7235
-0.0341 0.0028 0.2155 0.8193 0.8797 0.9320
1.3420 1.7962 2.3685 3.1309 4.0339 4.8684
5.4452 5.9120 6.1842 6.2869 6.4969 6.4987
6.3780 6.4771 6.6411 6.8790 7.2801 7.7199
8.1047 8.1371 7.6856 7.1106 6.2049 5.0694
4.2854 3.6906 3.1129 2.7019 2.6046 2.5749
2.2829 1.9900 1.6836 1.0446 0.4038 -0.0540
-0.3811 -0.2324 0.2173 0.7851 1.5358 2.0810
2.3766 2.4189 2.1098 1.6106 0.8635 0.1344
-0.2441 -0.4929 -0.5577 -0.1080 0.7039 1.5880
2.3883 2.9939 3.3102 3.3382 3.5527 3.8059
3.6680 3.4130 3.1660 3.1291 3.2480 2.9867
2.3946 1.9990 1.7502 1.5303 1.5862 1.4745
1.1672 0.9698 0.5345 -0.0333 -0.6740 -1.3409
-2.0321 -2.8937 -3.6390 -4.4149 -5.3134 -5.9226
-6.1597 -6.1606 -5.7487 -5.1629 -4.7898 -4.4492
-4.1040 -3.9598 -4.4275 -5.0656 -5.3414 -5.7649
-5.9884 -5.3333 -4.3122 -3.4326 -2.4332 -1.2941
-0.4451 -0.0531 -0.0540 -0.2514 -0.4695 -0.8885
-1.6590 -2.6062 -3.3434 -3.9013 -4.2762 -3.9869
-3.0974 -2.0051 -0.9381 0.0280 0.6877 0.9617
1.0932 1.0824 0.8796 0.7246 0.6697 0.5913
0.6183 0.5345 0.4930 0.8814 1.3086 1.6808
2.2981 2.9371 3.2651 3.6121 3.8185 3.6004
3.3652 3.3480 3.5346 3.5932 3.8167 4.3033
4.4646 4.5124 4.6476 4.5160 4.1375 3.8122
3.5220 3.1984 2.7181 2.4928 2.5460 2.0323
1.2680 0.8111 0.0947 -1.0850 -2.1214 -2.6828
-3.2497 -4.4393 -5.3793 -5.7686 -6.9636 -8.7245
-9.7781 -10.5134 -12.0924 -13.3189 -12.9377 -12.9990
-13.3306 -12.1095 -10.7045 -9.9592 -9.0697 -7.8990
-7.4484 -7.7359 -7.6584 -7.3340 -7.4268 -7.5052
-6.6356 -5.6785 -5.3090 -4.7043 -3.9391 -3.7697
-4.0347 -3.9671 -3.7968 -3.8833 -3.8364 -3.3732
-2.8244 -2.2223 -1.4329 -0.9138 -0.3307 0.1082
-0.1063 -0.4344 -0.5380 -0.4317 -0.4542 -0.0739
0.6940 1.0139 1.4474 2.1855 2.5730 2.8614
3.8959 5.0008 5.7479 6.9402 8.0099 8.4398
8.6129 8.5335 8.1442 7.9478 8.2370 8.5984
9.2383 10.4558 11.5796 12.2970 12.9747 13.3874
13.2658 12.7494 12.1077 12.0266 12.0464 12.0203
12.7485 13.3919 13.3289 12.9891 12.5115 11.9743
11.7554 11.7094 11.4129 10.8244 10.0331 9.1022
7.6801 6.1291 4.7917 3.4354 2.2539 1.2220
0.4930 0.4155 0.6543 0.7237 0.8958 1.1887
1.2815 1.3131 1.3158 1.3302 1.0869 0.5894
0.3884 0.3217 0.3560 0.8606 1.7069 2.6342
3.4390 4.0924 4.6124 4.8710 4.7872 4.4664
3.9049 3.0713 2.2314 1.2878 0.1289 -0.9895
-2.0530 -3.2101 -4.4889 -5.9489 -7.6783 -9.6582
-11.7427 -13.9669 -16.3605 -18.4432 -20.2646 -22.0471
-23.3296 -23.8928 -23.9334 -23.7378 -23.2683 -22.6852
-22.3734 -22.0562 -21.4776 -20.8116 -20.1014 -19.1020
-17.9115 -16.4164 -14.4995 -12.8035 -11.3597 -10.0620
-8.9887 -7.9694 -7.1610 -6.7789 -6.7555 -6.7618
-6.6663 -6.6762 -6.4824 -5.8299 -5.3865 -4.9846
-4.4358 -4.6530 -5.4055 -6.0796 -6.9033 -7.6405
-7.6882 -7.1376 -6.2427 -4.9504 -3.5436 -2.1927
-0.7949 0.4758 1.4833 2.2593 2.8784 3.3777
3.8175 4.2672 4.8025 5.7316 6.7978 7.6070
8.5326 9.4635 9.9799 10.3413 10.5936 10.5125
9.9826 9.2391 8.6831 8.0459 7.3457 6.7284
5.9957 5.2810 4.8232 4.5718 4.4285 4.5898
4.8358 4.9070 5.0665 5.4063 5.6550 5.9731
6.6662 7.3610 8.0712 8.9372 9.7240 10.5071
10.9694 10.7658 10.4747 10.4729 10.4963 10.6486
10.8550 10.5936 9.6933 8.3703 7.0059 5.6460
4.5294 3.8400 3.3750 3.2218 3.1028 3.0388
3.2028 3.0172 2.5071 1.9565 1.1967 0.5073
0.5758 1.1895 1.8330 2.8892 4.3014 5.5045
6.5823 7.9378 9.1057 9.7276 10.3872 10.9550
11.3110 11.8850 12.5420 12.7340 12.4285 11.7778
10.7243 9.7203 8.7813 7.6620 6.5021 5.4486
4.5528 3.6940 3.1199 2.5972 2.0321 2.0871
2.1817 1.7537 1.6329 1.9727 2.0051 1.8240
1.9862 2.0790 1.6879 1.3076 1.3995 1.4220
1.2129 1.7329 2.3007 2.1268 2.0916 2.3512
2.1745 1.6518 1.8095 2.0429 1.2472 0.3955
0.1171 -0.5922 -1.5925 -1.7782 -1.9837 -2.6902
-3.0047 -3.4625 -4.4494 -5.1595 -5.4966 -5.9913
-6.6600 -7.5126 -8.5444 -9.1275 -9.3988 -9.9017
-10.1279 -9.8665 -9.9044 -10.0513 -9.7331 -9.7259
-10.1991 -10.2910 -10.4487 -11.0723 -11.2427 -10.9173
-10.9065 -11.3742 -11.9258 -12.6377 -13.1947 -13.0667
-12.9487 -12.9315 -12.4404 -11.8906 -11.6500 -11.2454
-10.6010 -10.1035 -9.9251 -9.9729 -10.0161 -10.1937
-10.5551 -10.5920 -10.2099 -9.9071 -9.7980 -9.8260
-9.8494 -9.9206 -10.0080 -9.7368 -9.6061 -9.8945
-9.9738 -9.8503 -9.7917 -9.4799 -8.7076 -7.8614
-7.1341 -6.3392 -5.6507 -5.2352 -4.7315 -4.1520
-3.9150 -3.7879 -3.5968 -3.4193 -3.0066 -1.6070
1.0390 4.3148 8.3216 12.8349 17.1372 21.1908
24.1639 24.3496 21.3792 16.1828 9.7320 3.4614
-0.9356 -2.5713 -1.3411 3.0270 10.3556 18.1844
23.3321 24.9327 23.3718 18.8252 12.5789 6.3290
1.1579 -2.2685 -3.7618 -2.5956 0.6055 4.3004
8.3793 11.6597 12.9241 12.7844 11.3803 8.7461
5.9992 3.4677 1.6923 1.4382 2.0231 3.1523
4.2680 5.1719 5.9406 5.6684 4.4401 3.0865
2.4674 2.6233 2.7089 2.5079 2.4637 2.5602
2.3439 1.2228 -0.8194 -2.1054 -2.4496 -3.5347
-4.6152 -4.4674 -5.1046 -6.5871 -5.8211 -3.5969
-2.1865 -0.9248 0.4216 -0.4562 -3.3382 -5.3011
-7.3910 -10.2217 -11.4824 -12.1638 -13.4038 -12.7522
-10.3442 -8.9690 -7.9200 -6.7493 -7.2504 -8.3940
-8.4913 -8.9861 -10.3244 -10.1478 -9.1582 -8.9753
-7.5018 -5.2677 -5.1235 -4.8964 -2.9904 -3.3815
-4.7270 -2.7804 -1.6999 -3.2770 -2.9841 -1.0627
-1.8251 -2.5145 1.4940 3.3172 1.3850 2.4322
3.6749 1.4417 -1.2141 -0.5580 0.2792 -1.5584
-1.2177 1.2164 2.0816 1.6761 1.5841 1.4111
0.0917 -1.0979 -1.8747 -2.4974 -2.7426 -2.9778
-3.5555 -3.8069 -3.0814 -2.7615 -2.8399 -2.3118
-2.1667 -2.5227 -2.0649 -1.4115 -1.5989 -1.7530
-1.4556 -1.6575 -2.2199 -1.9594 -2.0522 -2.9733
-2.8525 -2.6425 -3.3275 -3.7150 -3.9565 -4.2043
-4.0376 -3.6285 -2.9075 -1.8531 -0.7302 -0.2742
-1.1628 -2.8291 -4.4495 -4.9758 -4.3008 -3.2743
-1.1592 1.4597 2.8692 3.4397 4.0390 4.1706
3.1792 2.6448 2.8368 2.1780 1.6823 2.3204
3.0765 3.3234 3.7263 4.9303 5.7873 5.6756
5.6206 5.3674 4.7356 4.5509 4.9600 5.4962
5.7972 6.4326 7.2761 7.3762 7.6384 8.8541
9.4003 9.0416 9.4597 10.2068 10.1302 10.4754
11.8335 12.5482 12.6734 13.4593 14.3704 14.3794
14.2064 14.3001 13.8234 13.4836 13.1709 12.2985
11.8642 11.4172 10.5592 9.7995 9.0830 8.4531
7.9908 7.8141 7.7024 7.2878 6.9264 6.5065
5.7441 5.2448 4.7509 4.0822 4.0200 4.0516
3.6857 3.5974 3.5091 2.5177 1.4660 1.4633
1.1317 -0.0309 -0.5671 -0.9862 -1.7621 -1.8757
-2.1145 -2.9427 -2.8913 -2.5011 -2.8354 -2.6813
-1.8739 -2.1190 -3.1923 -3.0977 -2.6264 -3.2734
-3.4293 -2.8841 -3.3816 -4.7649 -5.7121 -6.3249
-7.4289 -7.8624 -6.9963 -6.2456 -5.8887 -4.7595
-3.7376 -4.0314 -3.9124 -3.1103 -3.5844 -4.6280
-4.2134 -3.3753 -3.3302 -3.0554 -2.0532 -1.2773
-0.6266 0.6315 1.7715 2.5709 3.0278 2.9440
2.8737 2.9052 2.6295 2.1789 1.9563 1.6562
0.9172 0.3476 0.1737 -0.3905 -1.4476 -2.4678
-3.3870 -4.3315 -5.0605 -5.4463 -5.5887 -5.4436
-5.0867 -4.8190 -4.9254 -5.0633 -5.0822 -5.1876
-5.3273 -5.4553 -5.3832 -5.1606 -4.7596 -4.1747
-3.4825 -2.8472 -2.6012 -2.3849 -2.1542 -2.4398
-2.8905 -2.8598 -2.4642 -2.1334 -1.9370 -1.3872
-0.5635 -0.1409 0.1349 0.3818 -0.0453 -1.2178
-2.3479 -2.7904 -3.1383 -3.4744 -3.0653 -2.3678
-1.9433 -1.6711 -1.7621 -2.3137 -2.8941 -3.2771
-3.4889 -3.5952 -3.5303 -3.5150 -3.7971 -4.0323
-4.2711 -4.4505 -3.9953 -3.2203 -3.0058 -3.0968
-3.1762 -3.6664 -4.2982 -4.7704 -5.2588 -5.7662
-6.0258 -6.1276 -5.8852 -4.5244 -2.5940 -1.5098
-0.9186 0.4215 1.7390 2.2761 2.9908 4.1489
4.9644 5.3069 5.8927 6.7443 6.9480 6.4776
6.0891 5.8440 5.2024 4.1101 3.5919 3.5847
2.9160 2.1608 1.9868 1.7228 1.0739 0.3854
-0.2283 -1.0277 -2.1939 -3.7629 -5.2724 -6.2223
-6.9324 -7.3397 -6.9748 -6.6828 -7.2803 -7.6831
-7.2785 -7.2442 -7.5651 -7.3749 -7.3136 -7.7750
-8.3428 -8.5528 -8.3897 -8.3013 -8.0896 -7.7174
-7.3578 -7.1190 -6.9549 -6.1529 -4.8488 -4.0837
-4.1134 -4.1017 -3.3546 -2.3480 -1.7802 -1.2458
-0.7141 -0.8646 -0.6934 0.5296 1.8291 2.8664
3.8181 4.2047 3.6027 3.1827 3.9001 4.5390
5.0473 5.8512 5.8954 5.4231 5.3249 7.0831
8.8198 6.6992 5.3258 7.1480 6.4442 3.7829
4.0605 5.1239 3.2152 1.7967 2.5879 1.8985
0.4133 0.2051 -0.5933 -1.7784 -1.4450 -1.7974
-2.9951 -1.9839 -0.5861 -1.3981 -1.9740 -0.7384
-0.4699 -1.6496 -1.4017 -0.3572 -0.5681 -0.7826
-0.0481 0.4818 0.2772 0.3277 0.6017 0.7783
0.9729 0.9099 0.7792 0.8297 1.0099 1.1234
1.6407 2.5474 3.0719 3.3233 4.3732 5.4961
5.3564 5.3150 6.0557 6.5694 6.3549 6.1495
6.2729 5.6610 4.9337 5.1563 5.3690 5.0419
5.1266 5.5069 5.5880 6.0765 6.6568 6.2531
5.5583 6.5658 8.4944 9.5993 11.0944 13.3681
14.8146 14.9380 14.8506 13.9467 11.5098 8.7143
6.3180 4.8319 4.0659 3.6639 3.6252 3.9262
3.6135 1.5722 -0.7421 -1.1089 0.2916 1.8687
3.4639 5.1356 5.8728 5.3681 5.2509 6.2711
6.8181 6.1945 4.5922 2.4536 0.5953 -0.4104
-0.3023 0.8152 2.3355 3.4377 3.8532 3.3836
2.5428 2.0057 1.5272 0.8801 0.4772 0.7620
0.8981 0.5584 -0.3383 -2.8770 -5.9655 -7.1298
-6.3079 -4.9958 -4.1550 -4.3893 -5.9105 -7.5777
-7.9481 -7.4462 -7.1109 -6.8189 -6.5819 -7.0974
-7.8139 -7.8724 -7.9436 -8.2834 -8.0824 -7.3768
-7.3263 -8.2744 -9.4297 -9.9101 -9.8821 -9.9353
-10.1768 -10.5373 -10.3688 -9.5956 -8.4267 -7.0262
-5.8060 -4.7597 -3.7918 -2.8572 -2.1561 -2.1687
-2.8861 -3.7017 -3.9874 -3.1033 -1.7424 -1.2216
-1.2504 -1.1296 -0.7241 0.0510 1.0720 1.8777
2.5933 3.3773 3.8153 3.7107 3.2061 2.5770
1.4100 -0.1221 -0.9151 -1.2162 -1.5974 -1.7497
-1.6595 -1.6902 -2.0795 -3.1258 -4.5281 -5.2482
-5.0454 -4.6696 -4.3866 -3.7341 -2.8573 -2.4733
-2.0939 -1.2675 -1.0584 -1.0332 -0.1753 0.3817
0.0771 -0.0689 0.5105 1.2405 1.5929 1.8119
1.7046 0.9440 0.0023 -0.8151 -1.5082 -1.9056
-1.9083 -1.2892 -0.4240 -0.5952 -2.0372 -3.6071
-4.7931 -5.8583 -6.3467 -5.7610 -4.9526 -4.7985
-4.5840 -3.6395 -2.6437 -2.0561 -1.7308 -1.8326
-2.4454 -2.6401 -1.5749 -0.0473 1.0522 1.5965
1.5740 1.8281 2.6221 3.3529 4.1244 5.0715
6.4351 7.7400 8.3970 8.9891 9.3207 8.9026
8.5601 8.6773 8.6070 8.1555 7.4624 6.4080
5.3131 5.0805 5.4591 5.5221 5.3500 4.9066
3.9477 3.1997 3.0411 2.7014 1.7857 1.0891
1.1351 1.0756 0.3510 -0.1798 -0.2375 -0.4249
-0.0960 0.9179 1.2946 0.6349 -0.3961 -1.2072
-1.7686 -2.1363 -1.9020 -1.5406 -1.8047 -2.2922
-2.9330 -3.9297 -4.9896 -5.8412 -6.6487 -7.2741
-7.5337 -7.7932 -8.2528 -8.9188 -9.6281 -10.7221
-12.0145 -13.0193 -13.8133 -14.1747 -14.4234 -14.6316
-14.4045 -14.0521 -14.0007 -13.7574 -13.0409 -12.6471
-12.9770 -13.5528 -13.6907 -13.4231 -12.8859 -11.9802
-11.1592 -10.5753 -9.8894 -9.1721 -8.5043 -7.8617
-7.5102 -7.1921 -6.4378 -5.4023 -4.4416 -3.5494
-2.3445 -1.1522 -0.3754 0.4880 1.6370 2.9428
4.5155 6.3007 8.0347 9.3964 10.1165 10.3778
10.3733 10.3066 10.5562 10.7176 10.6932 11.0654
11.6755 12.2262 12.5858 12.6858 12.5731 12.0910
11.3024 10.6193 10.1480 9.8398 10.0281 10.6202
11.0654 11.1078 10.7563 10.2183 9.5928 8.9305
8.6042 8.6997 8.8097 8.8097 8.6394 8.2672
7.8193 7.3461 6.9577 6.6161 6.3233 6.3719
6.4720 6.0727 5.6762 5.4536 5.0264 4.9345
5.2418 5.2968 5.1292 4.7326 3.9846 3.1699
2.4976 2.2092 2.2894 2.3588 2.1894 1.9920
1.9650 1.9163 1.9785 2.4742 3.3123 3.7719
3.7305 3.8620 3.8666 3.7377 4.0729 4.4902
4.6155 4.3090 3.8828 3.8098 4.1694 5.3040
6.5657 6.6242 5.0381 2.3363 -0.3619 -1.7957
-1.4380 -0.0681 1.3224 2.0164 2.1876 2.3850
2.6166 2.5814 1.4558 -0.4358 -2.0129 -2.9745
-3.1971 -3.0845 -3.1899 -3.3170 -3.0223 -2.3013
-1.6561 -1.6831 -1.9697 -2.1004 -2.4581 -2.9908
-3.4305 -3.5693 -3.5567 -3.7433 -4.0190 -4.3047
-4.7950 -5.0734 -4.9950 -5.2447 -5.4529 -5.2627
-4.8563 -4.3029 -4.1227 -4.3309 -4.6454 -4.8085
-4.8842 -4.9193 -4.2849 -3.4846 -3.4360 -3.5901
-3.2864 -2.9799 -3.0674 -3.2431 -3.3873 -3.5441
-3.3386 -2.5717 -1.9526 -1.7868 -1.7201 -1.9976
-2.4843 -2.5257 -2.3906 -2.3374 -1.8147 -0.9919
-0.5152 -0.3277 -0.3827 -0.7062 -1.4209 -2.1734
-2.2365 -2.0040 -1.8156 -1.3677 -0.8063 -0.6008
-0.4971 -0.2133 0.2788 1.0737 1.5324 1.6955
1.9460 1.9577 1.9307 2.1317 2.4056 2.6589
2.9238 3.3041 3.7061 3.7475 3.3555 2.7977
2.1839 1.6117 1.0205 0.3806 -0.0952 -0.4323
-0.8108 -1.0847 -1.2839 -1.6732 -2.0761 -2.3122
-2.3050 -2.1716 -2.0508 -1.9066 -1.9292 -1.9607
-1.7228 -1.4065 -1.0397 -0.4719 0.0958 0.4131
0.6942 0.9754 0.9231 0.6969 0.6312 0.6519
0.7267 1.1340 1.6306 1.5197 1.0475 0.6699
0.0490 -0.6891 -0.9667 -1.0298 -1.1019 -1.0289
-1.0757 -1.1379 -1.0586 -1.0145 -0.9982 -1.0397
-1.0018 -1.2551 -1.9869 -2.7538 -3.5252 -3.8677
-3.7460 -3.6766 -3.5153 -2.9286 -2.2635 -2.0445
-2.0220 -2.1969 -2.7817 -3.5279 -3.9046 -3.9659
-3.9299 -3.6018 -3.3892 -3.3657 -3.3180 -3.2513
-3.3621 -3.6505 -3.6613 -3.7857 -4.0011 -3.8055
-3.5856 -3.4712 -3.2161 -3.0269 -2.9710 -2.8638
-2.9007 -2.7754 -2.5582 -2.5799 -2.3402 -2.1374
-2.1482 -2.1761 -2.3798 -2.4889 -2.5474 -2.6763
-2.3438 -1.6850 -1.1848 -0.6828 -0.2710 -0.0015
-0.0826 -0.6180 -1.1533 -1.7346 -2.1356 -1.7859
-0.8054 0.4103 1.9334 3.5114 4.7532 5.7824
6.4980 6.8630 6.7620 6.5079 6.4691 6.4709
6.8630 7.6704 8.5221 9.3890 10.1704 10.5516
10.5849 10.2794 9.4278 8.4076 7.6173 7.3036
7.2694 7.2487 7.1207 6.5683 5.8175 4.8938
3.6745 2.3632 1.2016 0.2364 -0.5441 -0.6856
-0.3242 0.0138 0.2310 0.2219 0.0516 0.0039
0.1652 0.3229 0.3031 0.0363 -0.3629 -0.5909
-0.3665 0.4382 1.4539 2.2875 2.9373 3.6042
3.9881 3.9250 3.8890 3.8520 3.3473 2.2253
1.2836 0.5320 -0.5729 -1.5940 -2.5222 -3.5929
-4.6121 -5.4007 -6.1172 -6.8039 -7.4924 -8.1746
-8.6541 -9.1506 -9.9500 -11.0107 -11.9299 -12.8095
-13.9486 -14.8048 -14.7994 -14.5029 -14.5930 -13.9288
-12.5599 -11.9272 -11.4478 -10.3537 -9.7031 -9.8590
-9.1750 -7.9502 -7.3870 -6.6786 -5.6567 -5.0006
-4.6257 -4.0462 -3.5677 -3.3901 -2.8674 -2.2528
-1.9960 -1.4994 -1.0875 -1.1795 -1.1110 -1.0884
-1.2182 -1.2948 -1.2786 -1.1398 -1.2110 -1.1218
-0.9325 -0.9605 -0.8433 -0.6045 -0.4936 -0.6000
-0.7523 -1.1191 -1.4642 -1.2371 -0.8830 -0.5775
-0.0809 0.6824 1.3836 1.6674 1.8531 1.9504
2.0054 2.3848 2.9679 3.6609 4.6694 5.7202
6.4628 7.1441 7.5334 7.3739 7.2639 7.5496
8.1210 8.6455 8.9645 9.5863 10.4362 10.8552
10.9354 10.9778 10.6011 9.4521 8.1237 7.0386
5.9509 5.0659 4.5143 4.1232 3.7988 3.2716
2.6344 2.2820 2.1036 1.6521 0.9690 0.2958
-0.3756 -0.9605 -1.3859 -1.5697 -1.6643 -1.6229
-1.3489 -1.1317 -0.6667 0.1110 0.7022 1.1006
1.4529 1.6665 1.7188 1.7837 1.9702 2.1369
2.0676 1.9991 1.9937 1.8251 1.6305 1.2826
0.7941 0.4661 0.1921 0.2165 0.3562 0.2832
0.3291 0.2020 -0.0746 -0.1530 -0.2594 -0.4531
-0.4423 -0.2368 -0.0936 -0.0088 0.3706 1.1510
2.0099 2.8903 4.0015 5.2425 6.2717 7.3063
8.3688 9.1727 9.6404 10.0666 10.5893 10.9309
11.3482 11.8348 12.2070 12.5900 12.9054 13.1235
13.1794 12.9244 12.6865 12.5107 12.0142 11.5383
11.0814 10.4875 10.0720 9.7062 9.3304 8.8022
8.3742 8.1822 7.5333 6.7799 6.3005 5.3479
4.2043 3.6230 2.9426 2.0666 1.6088 1.2096
0.6238 -0.0647 -0.8109 -1.4102 -1.7203 -2.1402
-2.7729 -3.0216 -2.9729 -2.9234 -2.5187 -1.7347
-1.3760 -1.0525 -0.2098 0.1056 0.0425 0.3336
0.3786 0.0560 0.0308 0.3832 0.5373 0.5553
0.9572 1.3510 1.3943 1.4457 1.6331 1.3655
0.7076 0.4093 0.2191 0.0317 0.1605 0.3804
0.3363 -0.0242 -0.3522 -0.7470 -1.4436 -2.1123
-2.6449 -3.3352 -4.2229 -4.9033 -5.3612 -5.8100
-6.1506 -6.1840 -5.9677 -5.8478 -5.7613 -5.4549
-5.2296 -5.2089 -4.9700 -4.6853 -4.3996 -3.9382
-3.5434 -2.9432 -2.2205 -1.8149 -1.4499 -0.9903
-0.7506 -0.6515 -0.5568 -0.4541 -0.3892 -0.5658
-0.8903 -1.2535 -1.5409 -1.8942 -2.5737 -3.3731
-4.0391 -4.7033 -5.5369 -6.4390 -7.2780 -7.9774
-8.6650 -9.2787 -9.5914 -9.9717 -10.6846 -11.3082
-11.5543 -11.5480 -11.3975 -10.9541 -10.1232 -9.2427
-8.3667 -7.2835 -6.4030 -5.8677 -5.2440 -4.4825
-3.7832 -3.1280 -2.5755 -2.1213 -1.5950 -1.1291
-0.7407 -0.5929 -0.8209 -1.1634 -1.7041 -2.2295
-2.5774 -2.8693 -3.0721 -3.2965 -3.0514 -2.6224
-2.4710 -2.1241 -1.8519 -1.7663 -1.4644 -0.9597
-0.8164 -1.0868 -0.9678 -0.4388 -0.3505 -0.4830
-0.2261 -0.2351 -0.4199 -0.1189 0.1641 0.1335
0.1091 0.0037 -0.4640 -1.0805 -1.5239 -1.8843
-2.2286 -2.3755 -2.2764 -1.9321 -1.3860 -1.0201
-0.9363 -1.0859 -1.6383 -2.5053 -3.5020 -4.5105
-5.4892 -6.4652 -7.2934 -7.7233 -7.6485 -7.3150
-7.2105 -7.0122 -6.1957 -5.4081 -4.9539 -4.4384
-3.7868 -3.1659 -2.8676 -2.7063 -2.3881 -2.0331
-1.6627 -1.1832 -0.5569 0.0722 0.7841 1.6303
2.4378 3.2093 4.1348 5.4190 6.2535 6.4933
7.0745 7.7604 8.0812 8.2101 8.2659 8.3119
8.4327 8.7859 9.2491 9.4808 9.7935 10.1828
10.5018 10.8028 10.6694 10.1891 9.7466 9.2924
8.4768 7.5305 7.0196 6.6780 6.0057 5.4253
5.2829 4.9801 4.4304 4.0257 3.7527 3.3210
2.7911 2.2585 1.6700 1.1797 0.6751 0.1118
-0.4884 -1.0282 -1.3346 -1.4554 -1.3824 -1.1959
-1.1877 -1.4842 -1.5825 -1.5969 -2.2413 -3.0992
-3.6057 -4.2239 -4.9593 -4.8629 -4.6556 -5.3694
-5.7830 -5.3594 -5.0756 -5.1386 -4.9710 -4.7520
-4.9160 -4.5691 -3.9851 -4.4483 -4.5628 -3.7661
-3.9013 -4.9206 -5.0503 -4.0842 -3.9022 -4.4880
-4.4709 -4.2960 -4.2275 -4.3762 -5.1810 -6.2976
-6.7509 -6.1678 -5.6262 -5.3081 -5.2423 -5.9344
-5.7641 -4.2870 -3.6093 -4.0374 -4.1455 -3.6985
-3.3597 -3.2984 -3.2542 -2.7586 -1.8357 -1.3040
-1.4879 -1.4221 -0.5984 0.2686 1.1238 2.4882
3.8941 4.7196 5.3892 5.7137 5.6416 5.8903
5.8615 5.4703 5.5587 5.5560 5.2360 5.4812
5.8137 5.6037 5.3108 5.3036 5.4884 5.1360
4.5367 4.2177 3.9797 4.1456 4.7530 5.8110
6.2895 5.5478 4.8034 3.8914 2.6838 2.2602
2.5865 3.2173 4.5042 5.8209 6.3382 6.6978
6.8230 6.8032 6.7023 6.1615 5.8759 5.4721
4.9801 4.5727 4.0771 4.5457 4.5970 3.6850
3.7851 3.7887 2.6531 1.5420 1.0193 0.4109
-0.7021 -0.9994 -0.9201 -1.6051 -1.6817 -0.9868
-1.0941 -1.2824 -0.1325 0.5560 0.0279 0.4461
1.1860 0.7372 0.3911 0.9345 1.2121 0.5200
0.3578 0.7804 0.2478 -0.4596 -0.3704 -0.0217
-0.2262 -0.4894 -0.2433 -0.1731 -0.5146 -0.5597
-0.2929 -0.6498 -1.3834 -1.5780 -1.7943 -2.5802
-2.6676 -2.3116 -2.3621 -1.5844 -0.4912 -0.3407
-0.3677 -0.2623 -0.5705 -1.1419 -1.2230 -1.1500
-1.8682 -2.4531 -2.1161 -1.3573 -0.8355 -0.5633
0.0135 0.3532 0.0892 -0.1713 -0.0848 -0.3677
-0.6714 -0.5759 -0.7778 -0.8886 -0.9824 -0.9472
-0.5137 0.0901 0.6587 1.0381 1.4888 1.7834
2.0989 2.4828 2.4612 2.4476 2.4170 2.5251
2.9235 2.8351 2.4566 2.3972 2.5621 2.3395
2.0980 2.3629 2.3413 1.8042 1.7050 1.9997
1.6942 1.6555 2.0799 1.5545 0.8750 1.0589
0.7930 -0.0694 -0.2776 -0.1497 -0.3966 -0.7093
-0.5201 -0.7264 -1.5321 -1.7700 -2.1738 -2.9524
-3.4138 -3.8221 -3.9347 -3.9681 -4.3286 -4.4719
-4.1618 -4.1826 -4.4259 -3.9510 -3.6662 -3.8617
-3.7013 -3.5941 -3.8753 -4.0429 -3.7987 -3.5896
-3.2570 -2.3549 -1.4690 -1.1419 -0.6949 0.2387
0.5884 0.3748 0.2757 0.1081 0.0143 -0.1749
-0.4984 -0.5750 -0.5192 -0.6255 -0.9148 -1.0491
-1.2528 -1.8845 -2.4234 -2.8830 -3.6887 -4.5070
-5.4560 -6.5942 -7.4323 -7.6090 -7.6802 -7.9019
-7.6063 -7.3269 -7.0484 -6.9241 -7.1899 -6.9322
-6.8384 -7.3179 -7.1268 -6.0931 -5.2217 -4.3430
-2.8073 -1.2825 -0.3254 0.4532 1.2616 1.8176
2.3962 3.2704 3.9084 4.2374 4.6393 4.9538
4.9079 4.8214 4.9610 5.1125 5.0413 4.9755
4.8042 4.0616 3.0189 1.8798 0.9723 0.4226
-0.2227 -0.8734 -1.1428 -1.2384 -1.7079 -2.0044
-1.6863 -1.4934 -1.6601 -1.4970 -0.7301 -0.1623
0.0486 0.6677 1.5950 1.8906 1.9492 2.8522
3.5804 3.5696 4.0202 4.6348 4.5690 4.4825
4.8889 5.2440 5.2359 5.2981 5.3504 4.9367
4.5582 4.4104 3.9850 3.5227 3.0955 2.3935
1.8077 1.5058 0.8389 0.0161 -0.1984 -0.5751
-1.3375 -1.5141 -1.6286 -2.3099 -2.5136 -2.0720
-1.9206 -1.9630 -1.7512 -1.2591 -1.0699 -1.1735
-0.8040 -0.4345 -0.5156 -0.4228 -0.2038 -0.3119
-0.4336 -0.4201 -0.5490 -0.8806 -1.1293 -1.0113
-1.3006 -2.0585 -2.4424 -2.8723 -3.1796 -2.8389
-2.6578 -2.7596 -2.4019 -2.0567 -2.2676 -2.3451
-1.9972 -2.0612 -2.5929 -2.5731 -2.5379 -3.0688
-3.0246 -2.8200 -3.2454 -3.2841 -2.9363 -3.1219
-3.4310 -3.2382 -3.3337 -3.9934 -4.3359 -4.2241
-4.3097 -4.6567 -4.4728 -3.8123 -3.4833 -3.3499
-2.9922 -2.5992 -2.4568 -2.3838 -2.0720 -1.8945
-2.0630 -2.0297 -1.5475 -1.0284 -0.5220 0.4550
1.7311 2.5034 2.8026 3.3577 3.6443 2.8495
2.3186 2.8314 3.1748 3.5560 4.6654 5.7081
5.9316 6.3669 7.3077 7.3735 7.2690 7.7313
8.0305 8.2233 8.6839 9.1444 9.0272 8.6812
8.8542 8.8776 8.2675 8.0458 8.0278 7.5537
7.1843 6.9797 6.7508 6.3984 6.0586 5.7793
5.1025 4.6410 4.7726 4.6176 4.4058 4.6158
4.5446 4.2724 4.1210 3.8065 3.0774 2.3871
2.1735 1.8176 1.6409 1.7401 1.6544 1.5310
1.3129 0.9722 0.4162 -0.2183 -0.9879 -1.7575
-2.1279 -2.3523 -2.5335 -2.4911 -2.2415 -2.3055
-2.6777 -2.8741 -3.2058 -3.8682 -4.5882 -5.3425
-6.2077 -6.7764 -6.8250 -6.4267 -5.5453 -4.4513
-3.6384 -3.5320 -3.9979 -5.0812 -6.8602 -8.6653
-9.8819 -10.3082 -9.6404 -7.6650 -5.3885 -3.8294
-2.8787 -2.8291 -3.8348 -4.7442 -5.0551 -5.2651
-5.2669 -4.7892 -3.9916 -3.0526 -2.5236 -2.7489
-2.8138 -2.2253 -1.6900 -1.7684 -2.3055 -2.8579
-3.1679 -3.2644 -3.6537 -4.2611 -4.2485 -3.8925
-3.6510 -3.2446 -2.8507 -2.7318 -2.6119 -2.3091
-2.2695 -2.0811 -1.1826 -0.6040 -0.6482 -0.4265
-0.1480 -0.4643 -0.8176 -0.9997 -1.3637 -1.5115
-1.6386 -1.6260 -1.1448 -0.8834 -0.7644 -0.6103
-0.6112 -0.5788 -0.3661 -0.2354 -0.3301 -0.5662
-0.8924 -1.0150 -1.0564 -1.1177 -1.0682 -0.8591
-0.4418 -0.0210 0.4828 0.8884 0.6568 0.1304
-0.3265 -1.0456 -1.5449 -1.4079 -1.6161 -1.7468
-1.0546 -0.6915 -0.9050 -0.5968 -0.0840 -0.5869
-0.7311 -0.1174 -0.6960 -1.5350 -1.2520 -1.1294
-1.7369 -1.5458 -0.9312 -1.2890 -1.3908 -0.7834
-0.7816 -1.1907 -1.0402 -0.9871 -1.7792 -2.0577
-1.5458 -1.9631 -2.5245 -2.1821 -2.2208 -2.7120
-2.7661 -2.5462 -2.7201 -2.8048 -2.4885 -2.6038
-2.8291 -2.5561 -2.1938 -2.0811 -1.7468 -1.1547
-0.7158 -0.1264 0.4540 0.5738 0.5549 0.7568
0.8973 0.9217 1.4065 2.3195 3.0675 3.5054
3.9245 4.2715 4.2787 4.0822 4.1633 4.1651
3.5577 3.5703 4.2814 4.4111 4.4265 4.6662
4.2994 3.3495 2.6448 2.1825 1.6111 1.4318
1.7328 1.7129 1.5390 1.7877 1.9175 1.7183
1.7264 1.8003 1.7174 1.6174 1.2767 0.8243
0.5035 0.1574 0.0223 0.0169 -0.0688 -0.0697
0.1232 0.3025 0.0168 -0.1021 0.0953 -0.0922
-0.4455 -0.8537 -1.2358 -1.3305 -1.4287 -1.6693
-1.8811 -2.2046 -2.5940 -2.6408 -2.5399 -2.6120
-2.3921 -1.7315 -1.3476 -1.2566 -0.6014 0.1106
0.4386 1.3389 2.4600 2.9881 3.2008 3.3576
3.2486 2.8358 2.6006 2.6700 2.7880 3.0593
3.3837 3.4324 3.3459 3.1702 2.9421 2.7556
2.6141 2.5970 2.6105 2.3753 1.9724 1.8886
1.7228 1.1947 0.8432 0.8171 0.7459 0.5657
0.8549 1.4038 1.8111 2.3789 2.9187 3.2648
3.7379 4.2408 4.5931 4.9086 5.2321 5.5151
5.8819 6.1919 6.1306 6.0342 6.3415 6.7921
6.1648 4.7779 4.0461 3.3828 2.7087 2.3167
1.7534 0.9622 -0.0039 -0.7744 -1.3413 -1.9010
-2.4822 -3.2807 -4.0837 -4.4306 -4.8984 -5.3409
-5.1228 -5.3778 -5.8933 -5.8762 -5.7644 -5.1913
-4.2351 -3.6547 -3.6592 -3.7566 -3.3276 -2.7652
-1.8181 -0.4275 0.3818 1.0225 1.8715 2.4618
3.0367 3.7316 4.1227 4.3047 4.3687 4.2200
4.3047 4.7707 5.2465 5.5601 5.6412 5.0203
3.7235 2.7222 2.3554 2.2914 2.3104 2.3347
2.3716 2.2004 1.7913 1.3326 1.0189 0.8261
0.4980 0.4250 0.7459 0.9171 0.9964 1.1163
1.0460 0.8098 0.2862 -0.3239 -0.6032 -0.6105
-0.3158 -0.1662 -0.3050 -0.6132 -1.0566 -1.1773
-1.1413 -1.2206 -1.6829 -2.1497 -2.4201 -3.2122
-3.8566 -3.9440 -4.3991 -5.0111 -5.1273 -5.4355
-5.9231 -5.5581 -4.7695 -4.5605 -4.6866 -4.6992
-4.9966 -5.4824 -5.3211 -4.7749 -4.5587 -4.1747
-3.2979 -2.5499 -2.3741 -2.2317 -1.5829 -1.0890
-0.7168 0.2114 0.8954 1.0045 1.2983 1.6921
1.8552 1.9562 2.1995 2.1499 1.7732 1.7534
1.9435 1.7065 1.3001 1.0586 0.5025 -0.0031
-0.1977 -0.8421 -1.8460 -2.5508 -3.1870 -4.0693
-4.7047 -5.0597 -5.1345 -4.8813 -4.8335 -4.8570
-4.4532 -3.8602 -3.5917 -3.3952 -2.9789 -2.7572
-2.7572 -2.5156 -2.1407 -1.9785 -1.7992 -1.2053
-0.4906 -0.0761 0.4890 1.3046 1.7777 1.8192
1.8633 2.0823 2.0354 1.8273 2.0985 2.3121
2.2643 2.6771 3.2286 3.4179 3.6468 4.2713
4.5183 4.2930 4.3930 4.7318 4.8778 4.9499
5.2951 5.7106 5.9656 5.8214 5.5096 5.3978
5.2158 4.8643 4.7796 5.0599 5.0527 4.8625
4.9328 4.8643 4.4687 4.4164 4.3362 3.8099
3.9180 4.2182 3.8748 3.7639 4.0577 4.1722
4.1695 4.3128 4.5462 4.6769 4.9121 5.1924
5.0130 4.5173 4.1605 3.8685 3.5810 3.3674
3.0772 2.9492 2.9105 2.6780 2.3995 2.1147
1.9120 1.6281 0.9810 0.1979 -0.3816 -0.8088
-1.2882 -1.8019 -2.0507 -2.0642 -1.9596 -1.8749
-2.0480 -2.1696 -2.3084 -2.8176 -3.4106 -3.5791
-3.4863 -3.4124 -3.1420 -2.7761 -2.5202 -2.3625
-1.9092 -1.3585 -1.3162 -1.2035 -0.9233 -1.0494
-1.3955 -1.5081 -1.4820 -1.6190 -1.7749 -2.0092
-2.4427 -2.8609 -3.0654 -3.2286 -3.5755 -3.7909
-3.8008 -3.8594 -3.9243 -3.6972 -3.2033 -2.9834
-2.9924 -2.8672 -2.8140 -2.9258 -3.1168 -3.3187
-3.2664 -3.3556 -3.7945 -3.8351 -3.5503 -3.5160
-3.6783 -3.5169 -3.3394 -3.7918 -4.1739 -4.1865
-4.7327 -5.7132 -6.1061 -6.1359 -6.2188 -6.2161
-5.9863 -5.4302 -5.2914 -5.5987 -5.5663 -5.2788
-5.2004 -5.4636 -5.6267 -5.4951 -5.4383 -5.5645
-5.6330 -5.3626 -4.7570 -4.2145 -3.9432 -3.4494
-2.6446 -2.1805 -2.1724 -2.1652 -2.0038 -2.0994
-2.2418 -1.6830 -1.0783 -1.0107 -0.1699 1.5992
2.9789 3.6657 4.1550 5.0571 5.7132 5.5618
5.6582 6.2737 7.0533 7.7607 8.2519 8.9602
9.7362 10.4139 11.2908 11.9216 12.0225 12.0541
12.1460 12.0306 11.5088 10.9023 10.9077 10.8906
9.9128 9.0440 9.0350 9.0522 8.9350 8.6268
7.3588 5.3148 3.6819 2.7266 1.8019 1.2252
1.2513 1.6532 2.6527 3.6701 3.8648 3.5935
3.4899 3.2042 2.7455 2.6878 2.6896 2.1877
1.6532 1.7632 1.9146 1.9957 2.1588 1.7704
1.2008 1.1152 1.0720 0.5907 0.0293 -0.4096
-0.8900 -1.4271 -1.9300 -2.5635 -3.3449 -3.6936
-3.7549 -4.2947 -5.3753 -6.5315 -7.4382 -8.2555
-8.7918 -8.5133 -7.9627 -7.6139 -7.2552 -6.9380
-6.7244 -6.7343 -6.9542 -7.2687 -7.7833 -8.2303
-8.1402 -7.2922 -5.6799 -3.8207 -2.1174 -0.9224
-0.9711 -2.2706 -4.3272 -6.8326 -9.1487 -10.7952
-11.0772 -9.9129 -8.0555 -4.7877 -0.9071 0.7745
0.0094 -0.9756 -1.1504 -1.3523 -1.5920 -1.4650
-1.4451 -1.5767 -0.7404 0.9512 1.7650 1.8064
1.5901 0.7259 -0.7251 -1.9769 -1.7651 -0.6989
-0.0402 0.3654 0.5015 -0.0618 -1.2226 -2.5726
-3.7279 -4.2849 -4.4083 -4.0848 -3.0817 -2.0868
-1.6831 -1.8561 -2.1878 -2.2427 -2.1553 -2.0363
-1.9940 -2.1030 -1.8877 -1.4001 -1.1072 -0.4241
0.5952 1.3179 1.7514 2.0335 2.4481 2.8284
3.2393 3.5547 3.2312 2.6851 2.2993 1.2530
-0.7251 -2.1733 -2.1806 -1.4506 -0.3899 1.2621
2.4787 2.4562 1.8830 0.9250 -0.4349 -1.5218
-1.4794 -0.7576 -0.3448 -0.0150 0.0950 -0.4007
-0.5440 0.1337 0.7042 0.9196 0.8935 0.3852
-0.3448 -0.7260 -0.8342 -1.0063 -0.9964 -0.9207
-0.8405 -0.6521 -0.2033 0.6195 0.9025 0.7457
0.8430 1.1323 1.3215 1.1755 1.1332 1.0160
0.6808 0.5059 0.4239 0.5014 0.7952 1.2774
1.7892 1.8181 1.3846 1.2548 1.4756 1.7649
2.0416 1.9713 1.6892 1.4387 1.1980 1.1359
1.2999 1.3729 1.3170 1.0629 0.4654 -0.2808
-0.9387 -0.9468 -0.7017 -1.0063 -1.4064 -1.7011
-1.9769 -2.0427 -2.0526 -2.2139 -2.5771 -2.7547
-2.5906 -2.5303 -2.5131 -2.4762 -2.2320 -1.6507
-1.4506 -1.6480 -1.9931 -2.6420 -3.1890 -3.5036
-3.6405 -3.5054 -3.0953 -2.3059 -1.6182 -1.3623
-1.3362 -1.4632 -1.3199 -1.2136 -1.4191 -1.3758
-1.0054 -0.5810 -0.2727 0.2968 0.7808 0.7537
0.4383 0.0940 0.1571 0.4176 0.7826 1.4206
2.1398 2.7697 3.2618 3.8232 4.3414 4.4090
4.5920 4.7262 4.2162 3.7746 3.6385 3.5709
3.5844 3.8422 4.3225 4.6028 4.7956 5.2435
5.7401 5.8464 5.6752 5.5427 5.2003 4.8957
4.9696 5.0462 5.0525 5.1516 5.3192 5.4823
5.4688 5.3481 5.2309 5.1165 4.9272 4.6830
4.9669 5.4120 5.3589 5.3580 5.5607 5.6608
5.7527 5.7311 5.2075 4.3648 3.6331 3.1707
2.9608 2.7922 2.6580 2.4263 2.1542 2.0415
2.1316 2.1992 1.9388 1.7261 1.4098 1.1025
1.1421 0.9628 0.7023 0.8591 1.0565 1.0790
1.2151 1.1728 0.8591 0.6050 0.7023 0.9276
0.8916 1.0150 1.5170 1.8775 1.7342 1.5864
1.5639 1.7189 1.8838 1.7775 1.7153 1.3106
0.8717 0.7068 0.4058 0.1237 -0.1286 -0.1827
-0.1800 -0.4332 -0.4314 -0.3079 -0.5179 -0.8379
-1.2164 -1.7219 -2.2230 -2.7736 -3.2918 -3.6514
-4.0245 -4.1255 -4.2435 -4.6328 -4.6815 -4.7428
-5.1474 -5.3962 -5.4746 -5.7918 -6.0883 -5.9612
-5.9062 -6.2163 -6.1802 -5.7675 -5.7494 -5.6359
-5.1573 -4.8527 -4.6328 -4.1273 -3.4847 -3.2774
-3.0026 -2.5718 -2.5384 -2.4916 -2.1257 -1.6598
-1.4354 -1.2362 -0.8613 -0.6865 -0.4666 0.0994
0.5725 0.8627 1.2764 1.5756 1.5386 1.4512
1.3421 1.0438 0.7996 0.6960 0.6572 0.7582
0.8897 0.9699 0.8095 0.6671 0.6671 0.4599
0.2580 0.1625 -0.1836 -0.7964 -1.2317 -1.6364
-1.8923 -2.1374 -2.4393 -2.3780 -2.6313 -2.9476
-3.1270 -3.2405 -3.1603 -3.3306 -3.2243 -2.8953
-2.7142 -2.3105 -1.9139 -1.8382 -1.6841 -1.2552
-1.0289 -0.8451 -0.2909 0.2138 0.6897 1.2998
1.7765 2.0334 2.3560 2.8471 2.9967 3.0256
3.1463 3.0688 3.0941 3.2608 3.2238 3.3203
3.5438 3.5203 3.5023 3.5726 3.5987 3.4753
3.4518 3.4690 3.2941 3.2869 3.5320 3.8817
4.3720 5.0001 5.4165 5.6940 5.8743 5.8833
5.9563 5.9599 5.9419 5.6571 5.1569 4.8325
4.5342 4.2440 3.8979 3.6059 3.3770 3.2184
3.3626 3.6357 3.5356 3.3266 3.1391 2.3289
1.7909 1.4566 0.5121 -0.0313 -0.1620 -0.5477
-0.8839 -0.9145 -1.1371 -1.6346 -1.7941 -1.7662
-1.8905 -1.9248 -1.9635 -2.1158 -2.1537 -2.1555
-2.2844 -2.2970 -2.1690 -2.2141 -2.2934 -2.3204
-2.4322 -2.6530 -2.7521 -2.7503 -2.8783 -2.8350
-2.5989 -2.4069 -2.2339 -2.0338 -1.7166 -1.4318
-1.1498 -0.7604 -0.5811 -0.6550 -0.7127 -0.5856
-0.5306 -0.4432 -0.1999 -0.1071 -0.0052 0.1255
0.3471 0.5959 0.6572 0.8158 0.9798 1.0149
0.9906 0.7707 0.6905 0.6662 0.4472 0.3787
0.3769 0.1002 0.0470 0.3994 0.2570 0.1110
0.4976 0.2868 -0.3855 -0.3495 -0.1900 -0.7875
-0.9452 -0.3387 -0.6893 -1.1245 -0.4450 -0.1792
-0.3973 -0.0701 0.3021 0.1020 0.0092 0.5418
0.8951 0.9374 1.5340 1.9251 1.7170 1.8774
2.1558 2.1045 1.9900 2.0261 2.2739 2.7173
3.3076 3.7294 3.9817 4.2430 4.1682 3.8438
3.3617 3.0913 2.9624 2.2838 1.6178 1.4935
1.1330 0.6130 1.3934 1.7845 0.6130 0.7220
1.3393 0.2894 -0.7794 -0.9993 -1.5130 -2.3998
-2.7125 -2.5908 -2.4340 -2.0726 -2.0213 -2.4710
-2.4493 -2.1060 -2.4187 -2.6521 -2.1952 -2.1195
-2.4683 -2.0898 -1.3156 -1.4544 -2.0321 -1.3949
-0.9461 -1.7897 -1.7338 -1.1038 -1.2634 -1.1264
-0.5018 -0.8010 -1.4652 -1.1453 -1.0561 -1.8059
-1.6500 -1.0786 -2.0231 -2.9811 -3.1072 -3.9264
-4.3671 -3.7615 -4.0292 -5.1187 -5.3179 -5.2097
-6.0722 -5.9298 -4.8213 -5.5153 -6.5048 -5.9965
-5.9199 -6.8662 -6.5435 -5.6874 -6.2308 -6.4183
-5.6378 -5.7279 -6.1641 -5.5063 -5.1052 -5.5378
-5.3585 -4.4573 -4.1517 -4.4356 -4.0995 -3.1820
-2.7107 -2.7774 -2.1754 -1.4968 -1.5310 -1.2445
-0.5415 -0.6929 -1.5527 -1.3715 -0.9741 -1.0985
-0.5145 0.2254 -0.0666 -0.2063 0.3336 -0.1801
-0.7623 -0.2387 -0.4226 -1.6761 -2.2836 -2.3430
-2.8333 -2.7675 -1.6734 -0.9777 -1.1688 -0.9651
-0.1225 -0.3072 -1.5581 -1.6049 -1.1048 -1.9096
-2.2151 -0.9390 -0.0675 0.0235 1.3213 2.8948
3.0786 3.5743 4.4142 4.3484 4.1907 4.5629
4.6008 3.9942 4.4611 5.5930 5.3749 5.0685
6.1671 6.8385 5.9075 5.8174 6.5951 5.7525
4.8143 5.7056 6.3644 5.8453 6.1247 6.8853
6.2644 5.2433 5.4857 5.3271 4.0195 3.8951
4.1601 3.1750 2.8290 3.3327 2.3657 0.7472
0.7886 1.2410 0.1848 -0.5424 0.3804 0.3191
-0.8263 -0.5947 -0.3280 -1.1931 -1.5563 -1.3806
-1.8231 -2.4584 -2.2908 -2.0060 -2.3566 -2.3728
-1.9105 -1.8988 -1.5104 -0.8029 -1.1364 -1.7969
-2.0033 -2.0709 -2.3935 -2.4764 -1.8132 -1.3238
-1.4265 -0.9813 -0.1036 -0.0008 -0.0946 0.1938
0.0857 -0.8020 -1.4995 -1.6978 -2.2151 -2.8739
-3.0253 -2.9577 -3.1938 -3.3002 -3.1848 -3.3903
-3.8517 -4.2428 -4.5078 -5.0846 -5.6460 -5.6821
-5.7244 -5.8947 -6.0245 -6.0561 -6.3282 -7.0627
-7.4286 -7.1934 -7.3177 -7.5106 -6.7878 -6.2282
-6.6418 -6.9239 -6.4039 -6.4995 -7.4737 -7.4016
-6.8527 -7.2168 -7.7080 -7.2763 -6.6319 -6.3634
-5.6478 -5.0206 -5.1197 -5.3612 -5.3567 -5.3387
-5.1567 -4.4745 -4.0644 -3.8932 -3.4200 -3.0632
-3.0920 -2.9857 -2.6594 -2.7937 -2.8775 -2.2935
-1.4590 -0.8507 -0.1252 1.0923 2.1287 2.6838
2.9172 3.3534 3.8211 3.5679 3.6589 4.6845
5.1874 5.1928 6.2571 7.4170 7.3187 7.3854
8.3001 8.3704 7.5774 7.9180 8.1568 7.0213
6.7474 7.1385 6.5121 5.8624 6.2796 6.5680
5.5470 4.5403 4.2817 3.8680 3.4435 3.3318
3.1065 2.8289 2.5531 2.1431 1.9205 1.7601
1.4158 1.3077 1.5825 1.6303 1.3554 1.1977
1.2950 1.3698 1.3212 1.6654 2.0169 1.7889
1.4645 1.3617 1.1869 0.8219 0.5479 0.6290
0.6083 0.3434 0.6137 1.0265 1.2878 1.7015
1.7438 1.4509 0.9967 0.5930 0.4001 0.4173
1.1490 2.0052 2.2981 2.2810 1.9709 1.5582
1.6159 1.9259 1.8700 1.8394 1.8925 1.7573
1.8655 2.2025 2.2188 2.1485 2.5207 2.4459
2.0025 2.4296 3.0253 3.0650 3.2642 3.5336
3.3038 3.5372 4.3717 4.4420 4.0734 4.5159
4.9440 4.6178 5.1486 6.3562 6.6698 6.6653
7.0150 6.9915 6.5716 6.3183 5.8056 5.0882
4.6727 4.1816 3.4804 3.2750 3.5003 3.1479
2.3611 2.0917 1.7303 0.8111 0.2523 -0.0180
-0.5416 -1.3140 -2.2053 -2.7379 -3.0380 -3.7509
-4.3447 -4.4358 -4.6340 -5.0792 -5.0432 -4.4862
-4.6016 -4.9413 -4.7332 -5.0026 -5.6479 -5.6191
-5.2369 -5.2721 -5.3298 -5.0946 -5.3478 -5.7011
-5.4514 -5.4172 -5.6209 -5.3460 -4.9368 -5.3649
-6.4599 -6.7546 -6.3031 -6.1535 -5.9174 -5.4884
-5.6019 -6.1292 -6.1084 -5.4884 -5.3604 -5.6434
-5.3460 -4.8044 -5.0639 -5.3325 -4.5683 -4.0366
-4.1105 -3.7013 -3.1660 -3.2300 -3.5202 -3.3931
-3.1543 -3.1606 -2.6072 -2.0449 -2.3955 -2.4072
-2.0368 -2.3144 -2.4576 -1.9701 -1.9935 -2.3360
-1.9602 -1.3807 -1.4528 -1.9295 -1.9340 -1.8791
-1.9872 -1.6826 -1.3257 -1.1103 -0.7084 -0.6507
-1.1230 -1.1031 -1.0031 -1.2302 -1.0346 -0.5849
-0.2173 -0.0550 0.0684 0.2955 0.6903 1.0390
1.0967 1.5284 1.8258 1.4301 0.9345 0.6695
0.4749 0.2045 0.3072 0.7569 1.3265 2.1547
2.8315 2.8595 2.5990 2.3800 2.0321 1.5329
1.5356 1.8086 1.7501 1.8961 2.1763 2.2827
2.3512 2.4530 2.5657 2.8667 3.2235 3.1839
3.0217 3.1469 3.6029 3.7913 3.4038 3.2848
3.2767 2.8153 2.5314 2.6386 2.3304 1.8231
2.0006 2.2124 2.2160 2.3854 2.5134 2.3674
1.7627 1.0552 0.5226 0.3811 0.4046 0.3171
0.3829 0.2045 -0.1677 -0.4525 -0.5093 -0.0956
0.3072 0.4262 0.6938 1.2931 1.5076 1.4184
1.5725 1.5788 1.6861 1.8573 1.9231 2.3737
2.7828 3.0081 3.1947 3.0397 2.7206 2.3331
2.3466 2.7152 2.9063 3.1280 3.0838 2.9748
3.0036 2.9108 2.7378 2.5755 2.6810 2.6224
2.3331 2.1330 1.9465 1.7059 1.4058 1.3012
1.0399 0.4162 0.0377 -0.2101 -0.7896 -1.4240
-1.6025 -1.6124 -1.5322 -0.9960 -0.2074 0.8623
2.0916 3.6308 5.2530 6.3327 7.2339 7.6178
6.7914 4.5131 1.2237 -2.6307 -7.1620 -11.8483
-16.0533 -19.8961 -23.5514 -25.9260 -26.2108 -24.6454
-20.9523 -14.7880 -6.7141 1.5914 8.4883 12.7357
13.0836 10.4683 6.5471 1.8933 -2.4046 -6.1842
-8.5913 -8.4003 -6.8592 -5.2866 -3.2841 0.6037
5.2224 8.2603 10.1619 10.9784 9.7122 7.4348
5.5414 3.2857 0.7479 -1.0329 -1.8765 -1.7440
-0.9031 -0.0623 0.2098 0.5433 1.3418 1.8077
1.9266 2.0573 1.8789 1.2715 0.5469 0.3189
0.7596 1.4256 2.8332 4.6627 5.3242 5.2791
5.1917 5.0015 5.1665 6.1118 8.2270 10.3520
11.7173 12.6501 12.4518 11.0126 9.1020 7.3321
6.0848 5.7153 6.2290 7.2311 8.5379 10.1168
11.3172 11.6425 11.6083 10.5431 7.9827 5.3891
2.9333 0.2684 -1.4376 -1.7611 -1.6818 -1.0708
0.4153 2.1393 3.8363 4.9222 5.0511 4.3869
3.4785 3.1685 3.4127 3.8173 3.8435 3.4379
2.5133 1.1516 0.4225 0.5685 0.6676 0.2405
-0.0849 -0.5472 -1.7341 -3.1895 -4.2079 -4.3359
-3.6555 -2.5461 -1.8594 -1.5412 -1.3718 -2.0333
-3.1751 -4.1836 -5.0641 -5.6021 -5.3065 -4.2521
-2.9733 -2.3307 -2.4136 -2.4334 -2.9417 -3.8231
-4.2097 -4.3755 -4.3710 -4.1773 -3.9069 -3.6474
-3.4076 -2.6696 -1.3880 0.0521 1.6328 2.5773
2.2600 1.5895 0.8370 -0.1480 -0.4950 -0.0777
0.7586 2.0969 3.5497 4.7356 5.3728 5.4665
5.5873 5.4197 4.6347 3.6172 2.3321 0.8037
-0.6995 -1.7098 -2.2974 -2.6696 -2.5173 -2.2766
-2.5966 -3.3635 -4.1935 -5.3326 -5.9509 -5.0677
-3.5564 -1.6224 0.7920 2.9945 4.3247 4.7591
4.4193 2.9422 1.1921 0.1746 -0.2489 -0.0236
0.7108 1.5886 2.7458 3.8597 4.2652 3.9236
3.2613 2.6412 1.7634 0.7829 -0.0651 -1.3133
-2.6615 -3.1166 -2.7137 -2.0333 -1.1429 -0.3048
0.5405 1.2678 1.3074 0.6018 -0.6175 -1.5827
-1.9135 -1.6116 -0.5923 0.6847 1.7472 2.3150
2.1501 1.4093 0.5847 -0.1624 -0.7095 -0.4797
0.1395 0.2593 -0.0651 -0.5887 -1.4304 -2.4398
-2.8994 -3.1689 -3.9529 -4.9974 -5.9969 -6.7584
-7.2676 -7.6461 -7.9543 -8.0273 -7.8543 -7.3189
-6.3375 -5.2209 -4.0674 -3.0130 -1.8549 -0.6915
-0.0399 0.7270 1.6192 1.8950 2.1735 2.8187
3.3919 3.9407 4.5445 5.0231 5.1736 4.9988
4.5157 3.6352 2.7187 1.9815 1.4137 1.2461
1.1605 0.6387 -0.0904 -0.7005 -1.7026 -2.8967
-3.8944 -5.0785 -6.1312 -6.7584 -6.7602 -6.5358
-6.1717 -4.9380 -3.6610 -2.9544 -2.4209 -2.1208
-1.9631 -1.7342 -1.2782 -0.4545 0.2557 0.3647
0.0754 -0.3661 -0.9826 -1.8865 -2.9211 -3.8583
-4.5405 -4.9172 -5.1840 -5.1876 -5.1389 -5.3633
-5.4445 -5.2318 -4.9434 -4.4558 -3.4447 -2.2208
-1.3043 -0.7789 -0.6554 -0.7609 -1.0655 -1.5197
-1.8153 -2.0073 -2.2452 -2.4452 -2.3218 -1.9694
-1.6693 -1.3656 -1.0772 -0.8195 -0.5509 -0.2130
-0.1868 -0.6401 -1.0448 -1.5260 -1.9406 -1.9712
-2.2154 -2.6841 -3.1563 -3.5537 -3.6943 -3.8809
-4.0197 -4.0557 -4.2981 -4.9785 -5.5463 -5.6545
-6.1600 -6.5340 -6.4088 -6.2880 -5.7617 -4.6406
-3.4771 -2.7255 -2.0866 -1.7676 -1.7892 -1.8189
-1.9595 -1.7117 -1.1151 -0.4779 0.1304 0.6260
1.4218 2.0743 2.0752 1.9265 1.6525 1.0703
0.4719 0.1033 -0.2283 -0.6104 -0.7393 -0.5663
-0.2454 0.0033 0.4170 0.7955 0.7630 0.4981
-0.1409 -0.1968 0.4188 0.8072 1.2929 1.7706
2.3383 2.9160 3.1728 3.4423 3.6009 3.5946
3.2377 2.7691 2.5339 2.2257 1.9319 1.5930
1.1577 0.5945 0.4368 0.5981 0.4097 0.1114
-0.1995 -0.4942 -0.8294 -0.9394 -0.7880 -0.6717
-0.7456 -1.1421 -1.7171 -2.3786 -2.8400 -2.8139
-2.2840 -1.4513 -0.5203 0.3259 0.7152 0.8054
0.7765 0.5548 0.2061 0.1637 1.0009 1.9247
2.4474 3.4062 4.4228 4.2056 2.9971 1.7940
1.1334 0.4701 -0.4203 -0.2725 0.2691 0.1331
-0.0895 -0.1797 -0.6312 -1.5171 -2.1542 -2.4111
-2.7472 -3.0437 -2.5706 -2.0614 -2.2588 -2.1632
-1.9920 -2.0019 -1.0574 0.4944 1.2118 1.5380
2.6961 3.8415 4.1326 5.0482 6.9579 8.2394
8.6864 9.0748 8.3340 5.1915 1.9625 -0.0418
-2.6526 -4.6091 -3.5520 -1.0385 0.4476 1.7480
3.6595 3.8154 2.0328 1.1009 1.0135 0.2150
-0.3167 0.0708 0.1574 -0.1752 0.2520 1.5452
2.4960 3.2575 4.5534 5.1401 4.6490 4.2894
3.4432 1.9012 1.2685 1.8706 2.9187 3.8829
5.0644 6.3721 6.4271 5.0257 3.4053 1.7426
0.0059 -1.1143 -1.8559 -2.3795 -2.2804 -2.1615
-2.3210 -1.9380 -1.2476 -1.1323 -1.0764 -0.1301
0.5593 0.1510 0.2925 0.8495 0.6088 0.5584
1.4280 2.2301 2.7600 3.3765 3.7045 3.6468
3.7288 3.9415 3.3503 2.6059 2.6780 2.8366
3.0980 4.1326 5.1834 5.2582 4.5012 3.3494
2.1481 1.1198 0.4205 -0.1184 -0.2716 -0.2491
-0.4915 -0.1094 0.4178 0.2772 -0.0058 -0.0977
-0.7718 -2.0786 -2.5769 -2.8419 -3.4448 -3.1609
-2.2768 -2.0885 -2.0560 -2.1065 -3.0825 -4.1721
-4.6876 -4.9931 -5.4545 -5.6086 -5.2797 -4.7588
-4.4469 -4.3983 -3.8576 -3.1078 -2.3174 -1.3910
-0.6880 -0.5799 -1.5505 -2.6202 -2.9257 -2.9573
-2.5824 -1.4189 -0.0175 0.9152 1.5668 1.9399
1.8065 1.6380 1.5389 1.4028 1.3802 1.2126
0.6926 0.1330 -0.0689 0.0194 0.1979 0.5728
1.1162 1.2640 0.8053 0.4754 0.2636 -0.1942
-0.3167 0.0672 0.5493 1.0729 1.7813 2.5365
3.3701 4.3686 5.0941 5.3320 5.5736 5.5654
4.7733 4.0956 3.9379 3.6810 3.3106 3.4296
3.7919 3.7675 3.7171 4.2280 4.7796 4.7742
4.7345 4.6011 4.2578 3.8117 3.2629 2.7618
2.4292 2.2211 1.9110 1.6001 1.1937 0.3114
-0.9872 -1.8794 -2.3742 -2.8744 -2.7671 -1.9984
-1.4360 -1.1053 -0.6826 -0.4889 -0.6069 -0.7610
-0.6944 -0.5871 -0.3708 0.1708 0.4430 0.1176
-0.6872 -1.8849 -2.7284 -2.8347 -2.4905 -1.8263
-0.9476 -0.1005 0.2429 -0.0734 -0.5817 -0.9089
-1.0098 -0.9025 -0.7493 -0.3456 0.2510 0.4979
0.3096 -0.1104 -0.6845 -1.1693 -1.2775 -0.9269
-0.4348 -0.2717 -0.0365 0.1068 -0.3708 -0.9665
-1.1882 -0.9728 -0.6989 -0.6151 -0.4862 -0.2897
-0.5222 -1.1693 -1.5370 -1.8092 -2.1426 -2.0642
-1.7209 -1.5974 -1.4739 -0.9476 -0.8386 -1.2450
-1.3730 -1.4190 -1.3297 -1.0954 -1.1026 -1.2585
-1.3496 -1.6461 -2.2706 -2.6086 -2.4454 -2.2976
-2.2823 -2.2985 -2.5247 -2.5734 -2.3481 -2.2679
-2.1255 -1.7488 -1.2622 -0.8034 -0.5583 -0.6980
-0.8755 -0.6583 -0.1717 0.4213 1.1711 2.0579
2.6166 2.8771 3.0528 2.7392 2.1985 1.8254
1.3739 0.8575 0.5970 0.6935 1.0125 1.5478
2.1543 2.3841 2.1201 1.8542 1.4874 0.6286
-0.0167 -0.1915 -0.3015 -0.4439 -0.5016 -0.3655
-0.4231 -0.6809 -0.7287 -0.6575 -0.5403 -0.4141
-0.3303 -0.1140 -0.0248 -0.2141 -0.3249 -0.3979
-0.6421 -0.8260 -0.6755 -0.3411 -0.0113 0.3933
0.9133 1.2044 1.0008 0.5754 0.1987 -0.0591
-0.0564 0.2915 0.8358 1.2900 1.6595 1.9623
1.7046 1.0701 0.7763 0.4591 -0.1312 -0.4331
-0.4646 -0.4881 -0.4917 -0.2402 0.0121 0.1067
0.5042 0.9160 1.2071 1.4721 1.5487 1.4207
1.2846 1.3702 1.5180 1.6586 1.8208 1.8217
1.6235 1.5415 1.4333 1.1729 1.2756 1.5892
1.5766 1.5252 1.7604 1.9236 1.9605 2.2850
2.8410 3.0348 2.8284 2.7130 2.7130 2.5733
2.2543 2.1957 2.2318 1.9731 2.0128 2.3922
2.5508 2.5941 2.9149 3.1159 2.8473 2.6517
2.3985 1.7172 1.0926 1.1233 1.4045 1.4288
1.6415 1.7424 1.3170 0.8349 0.4654 0.0202
-0.5133 -1.0207 -1.2712 -1.3307 -1.5839 -1.9579
-2.3004 -2.3527 -2.0643 -2.0183 -2.4563 -3.2647
-4.0614 -4.6949 -5.3041 -5.5898 -5.2969 -4.9283
-5.0194 -4.8175 -4.2380 -3.9361 -3.7216 -3.5414
-3.2728 -2.9268 -2.8285 -2.7645 -2.4401 -2.2364
-2.3833 -2.1661 -1.4362 -1.1955 -1.2145 -0.7648
-0.4493 -0.4223 -0.2042 -0.0681 -0.0348 0.2779
0.2500 -0.0177 0.2383 0.4915 0.1950 -0.4773
-0.8540 -1.0441 -1.6453 -2.1526 -2.3284 -2.1932
-2.1526 -2.4194 -2.3031 -2.4401 -3.1331 -3.7297
-4.2939 -4.6373 -4.5922 -4.2398 -3.6495 -3.0935
-2.7592 -2.9673 -3.5405 -4.1975 -5.3105 -6.2324
-6.4361 -6.7542 -7.2850 -7.6662 -8.0123 -7.9844
-7.2327 -6.3766 -5.7530 -4.9464 -4.2714 -3.9641
-3.3422 -2.2932 -1.8201 -2.1283 -2.1707 -2.2311
-2.7366 -2.5221 -1.4218 -0.2718 0.9241 2.1876
2.9004 3.0365 3.1077 2.9022 2.1488 1.6378
1.6811 1.4567 1.1872 1.1899 0.8637 -0.0087
-0.7873 -0.8829 -0.8657 -0.7972 -0.3448 0.1481
0.5600 1.0809 1.4008 1.1674 0.6402 -0.0330
-0.5089 -0.9189 -1.2974 -1.0640 -0.3989 0.3797
1.1728 1.8568 2.4056 2.8292 3.0428 3.0473
2.9040 2.6949 2.3588 2.1902 2.2479 1.8379
1.4359 1.4062 1.4756 1.7378 2.1470 2.8382
3.4141 3.3140 2.8193 2.2894 1.7243 1.2782
1.0583 1.1223 1.4530 1.5495 1.4188 1.3170
1.2196 1.1304 0.8078 0.2319 -0.3097 -0.5296
-0.6296 -0.8054 -0.7783 -0.7360 -0.9018 -0.9586
-0.8432 -0.9775 -0.9388 -0.2719 0.1868 0.2851
0.5897 0.6753 0.1355 -0.0511 0.6140 0.9925
0.9357 1.2440 1.5720 1.5459 1.7045 2.1154
2.1055 1.9262 2.1425 2.2578 2.2209 2.3443
2.1668 1.6252 1.2241 0.8772 0.4500 0.1976
0.1355 0.0372 -0.2358 -0.5468 -0.8640 -1.1875
-1.3245 -1.4029 -1.6561 -2.0518 -2.2654 -2.1951
-2.0500 -1.7733 -1.5038 -1.2966 -1.0704 -1.0253
-1.0848 -1.1073 -0.9523 -0.7009 -0.6270 -0.6261
-0.7766 -1.2353 -1.8310 -2.3086 -2.4348 -2.2951
-2.1311 -1.8418 -1.4002 -1.4822 -2.1933 -2.6637
-2.6691 -2.6331 -2.6069 -2.2320 -1.5633 -0.8739
-0.3864 -0.1935 -0.0709 -0.6315 -1.5246 -1.3561
-0.8577 -1.2065 -1.3741 -0.0358 0.7690 0.5851
2.0154 3.2257 2.4074 2.0541 2.7859 1.9081
0.3580 0.9357 0.9096 -0.5062 0.0696 1.6729
1.3025 0.8258 1.7675 1.4233 0.3418 0.9997
2.2082 2.0838 2.1514 3.3527 3.7132 3.2572
3.7376 4.6550 4.3945 4.1584 4.4324 3.5591
2.8075 3.7123 4.4360 4.1449 4.5216 5.0839
4.6216 4.3729 4.9262 5.3120 4.8046 4.0746
4.2305 4.3215 3.5627 3.2121 3.6294 3.4032
2.2983 2.1460 2.6029 1.6323 0.7293 1.0970
0.9898 0.5914 0.9807 1.6936 2.0397 2.3578
2.8976 2.8769 2.7399 2.9246 2.6390 2.1893
2.0306 1.6828 1.4016 1.7350 1.8738 1.4935
1.7278 2.4758 2.5750 2.4614 2.9922 3.1391
2.6092 2.6777 3.2139 2.8868 2.0442 2.0685
2.1226 1.5070 1.3223 1.5665 1.2078 0.7509
1.2213 1.6305 1.4340 1.5386 1.5782 1.0105
0.7004 0.6374 0.1038 -0.1485 0.2282 0.0263
-0.8767 -0.6982 0.1705 -0.0665 -0.1999 0.0038
-0.7712 -1.4805 -1.3174 -1.4543 -2.1951 -2.2357
-1.7148 -1.6968 -1.8229 -1.6328 -1.4787 -1.1470
-0.6802 -0.7920 -0.8866 -0.7676 -0.8316 -0.7298
-0.2999 0.0408 -0.2494 -0.2900 0.1282 0.1210
0.3057 0.9167 0.8771 0.0444 -0.5784 -0.9371
-1.3273 -1.2597 -0.9073 -1.1966 -1.5598 -1.6301
-2.3105 -2.8197 -2.7097 -3.0792 -3.6434 -3.6650
-3.9111 -4.0670 -3.4487 -3.1477 -3.2973 -3.1009
-2.7746 -2.8909 -2.8909 -2.4250 -2.1870 -2.0203
-1.4174 -0.8884 -1.0930 -0.9839 -0.2558 -0.2882
-0.6045 -0.3062 -0.1864 -0.5748 -0.3486 0.2507
0.2462 0.2426 0.5103 0.4463 0.2318 0.4418
0.6626 0.8401 1.1483 0.9158 0.4156 0.3805
0.3228 -0.0314 -0.0070 -0.0503 -0.5982 -0.8425
-0.9569 -1.1047 -0.8199 -0.6866 -0.9290 -0.8506
-0.6433 -0.9037 -1.3679 -1.7392 -2.2583 -2.8179
-3.0883 -3.2676 -3.2829 -3.0964 -3.0982 -2.9918
-2.7098 -2.4628 -2.2267 -2.3069 -2.8071 -3.1514
-2.9414 -2.8675 -2.9153 -2.3889 -1.9654 -1.9636
-1.6085 -1.0894 -1.2057 -1.3435 -0.7325 -0.7037
-1.3931 -1.2219 -1.0732 -1.8383 -2.2718 -1.9564
-1.9510 -2.3448 -2.0501 -1.5950 -1.7482 -1.5734
-1.1543 -1.1570 -1.3949 -1.6491 -1.6905 -1.8852
-2.2087 -2.3971 -2.6764 -2.7206 -2.5431 -2.4088
-2.2159 -1.7356 -1.1525 -1.0435 -0.9002 -0.5604
-0.7578 -0.9795 -0.8650 -0.9578 -1.1237 -0.5974
0.4192 0.8716 1.4394 2.6488 3.2418 3.2301
3.2814 2.8669 1.9341 1.5727 1.5376 1.0942
1.3123 1.9395 1.7331 1.8999 2.5316 2.1819
1.9954 2.6794 2.3973 1.3222 1.3691 1.3222
-0.0603 -0.2324 1.0653 1.1762 0.8229 1.3294
0.9698 -0.4271 -0.3604 0.3155 -0.5613 -1.1417
-0.5929 -0.6172 -1.0687 -0.5100 0.1641 -0.0567
0.3615 1.0464 0.6607 0.6003 1.4934 1.6034
1.0203 1.1194 1.4429 1.2339 1.2276 1.8485
1.6881 1.2339 1.7872 2.3342 2.3369 2.5803
3.2327 3.3229 3.3526 3.9267 4.2637 4.2880
4.1988 4.1078 3.7969 3.5454 3.5247 3.3499
3.4688 3.6905 3.7185 4.0231 4.4016 4.5242
4.5242 4.3394 3.7626 3.0597 2.5307 2.0521
1.8295 1.9476 1.7854 1.4015 1.2654 1.0329
0.6877 0.7652 0.9355 0.6616 0.4462 0.5237
0.4110 0.1587 -0.0161 -0.2324 -0.8002 -1.2003
-0.8407 -0.3496 0.0397 0.4867 0.8598 0.9824
0.8968 0.8869 0.9500 0.9013 0.5705 0.0415
-0.0693 0.2767 0.5318 0.7994 0.8103 0.4336
0.2353 0.3407 0.7490 1.2140 1.3744 0.9013
0.0307 -0.5100 -0.7939 -0.8849 -0.7524 -0.6921
-0.9759 -1.3842 -1.0913 -0.5551 -0.3460 -0.3235
-0.7786 -1.1562 -1.2039 -1.1192 -0.7416 -0.3496
-0.0666 -0.1973 -0.6182 -0.7606 -1.0291 -1.5266
-1.8600 -1.9628 -1.7050 -1.4941 -1.6104 -1.7870
-2.0466 -2.2746 -2.2124 -1.8645 -1.5257 -1.4211
-1.5771 -1.6870 -1.7303 -1.8916 -1.7095 -1.1841
-0.7543 -0.5470 -0.5100 -0.4569 -0.5767 -1.3013
-2.3197 -3.2227 -3.9040 -4.1365 -4.3762 -4.7664
-4.8683 -4.4771 -3.5102 -2.3152 -0.7525 0.7048
1.3041 1.6222 1.6447 1.2915 0.8454 0.0721
-0.9525 -1.6411 -1.5464 -0.8507 0.0784 0.8760
0.6552 -0.8381 -2.7306 -4.6727 -6.2543 -6.7067
-6.3129 -5.4333 -3.9464 -2.3089 -1.1310 -0.4623
-0.4380 -1.3626 -2.7829 -4.2104 -5.2648 -5.4126
-4.8422 -3.8490 -2.8739 -2.2187 -1.7186 -1.4176
-1.1382 -0.9634 -1.1292 -1.5861 -2.3611 -2.6468
-1.8637 -1.0679 -0.7318 -0.4326 -0.1919 -0.2154
-0.3740 -0.2721 -0.2406 -0.5984 -0.7777 -0.7858
-1.0949 -1.4140 -1.6717 -1.8862 -1.6934 -1.0733
-0.2451 0.2920 0.3812 -0.2325 -1.2265 -1.6393
-2.0935 -2.8532 -3.1272 -2.6522 -1.9178 -1.1535
-0.1343 0.3362 -0.0595 -0.7516 -1.5951 -2.4432
-2.9226 -3.0794 -3.1930 -2.9289 -2.1818 -1.5420
-1.6231 -2.0854 -2.5738 -3.2786 -3.6219 -3.2020
-2.5216 -1.8871 -1.2067 -0.9994 -1.5357 -2.2080
-2.6820 -2.8893 -2.7352 -2.1133 -1.0364 0.2001
1.1941 1.7907 1.9475 1.6267 1.3049 1.3933
1.7006 1.9682 2.1539 2.2981 2.1061 1.5663
1.1887 0.9282 0.8597 1.2851 1.8439 2.3485
2.8911 3.2930 3.3984 3.5318 3.7571 3.5859
3.3254 3.3507 3.2615 3.5201 4.3276 4.8908
5.2946 5.6758 5.8704 5.9479 5.8921 5.8677
5.7407 5.4505 5.4973 5.4667 5.1594 5.0900
5.1414 5.2062 5.1387 5.0305 4.8737 4.3663
3.8689 3.4552 2.6657 2.1412 2.5197 3.1524
3.8265 4.5267 4.9827 5.0413 4.7097 4.3780
4.2374 4.1626 3.6931 2.7784 2.1566 1.9646
1.5861 1.3581 2.0439 2.7541 2.7577 2.5981
2.4918 2.4215 2.3746 2.1286 1.5816 1.2274
1.3824 1.4824 1.3977 1.5311 1.6059 1.4689
1.4293 1.2346 0.9147 0.6641 0.3469 0.0973
-0.1046 -0.2974 -0.5714 -1.0382 -1.6709 -2.2774
-2.6181 -2.8587 -3.2615 -3.5923 -3.6058 -3.6878
-3.5778 -3.1624 -3.0110 -2.8884 -2.7145 -2.5424
-2.2963 -2.2549 -2.3585 -2.4171 -2.3567 -2.3432
-2.5568 -2.5424 -2.3819 -2.4712 -2.3035 -1.8629
-1.5276 -1.2113 -1.0617 -0.9247 -0.6579 -0.5363
-0.3930 -0.0523 0.2370 0.4514 0.8786 1.3202
1.5113 1.6518 1.9420 2.1097 2.0096 2.0898
2.1142 1.7906 1.4392 1.1535 0.9011 0.7272
0.7939 1.1616 1.8348 2.4972 2.6441 2.3935
2.0709 1.8222 1.5761 1.3625 1.0282 0.4244
0.1090 0.0134 -0.0641 0.2676 0.7912 1.1778
1.4265 1.4400 1.2922 1.0012 0.5289 0.3271
0.5037 0.7560 0.9173 0.9191 1.0390 1.2238
1.1652 1.0381 0.8822 0.7677 0.7921 0.7560
0.8227 0.7749 0.4947 0.2712 -0.1263 -0.5940
-0.7814 -0.9707 -1.3510 -1.6890 -1.7106 -1.4682
-1.5520 -1.8322 -1.9891 -2.2892 -2.8308 -3.4562
-3.9249 -4.2475 -4.5701 -4.6260 -4.4944 -4.5413
-4.4250 -4.1889 -4.1898 -4.3034 -4.3448 -4.4142
-4.3358 -4.0573 -3.7653 -3.1642 -2.3973 -1.8476
-1.6286 -1.4303 -1.0419 -0.8536 -0.7842 -0.5309
-0.1930 0.2414 0.6379 0.8245 0.9543 0.8542
0.4208 -0.2479 -1.0789 -1.7070 -2.1558 -2.4622
-2.3712 -2.1964 -2.0810 -1.7647 -1.4763 -1.5096
-1.5610 -1.4466 -1.3997 -1.5205 -1.5214 -1.3835
-1.3357 -1.1113 -0.9239 -0.9644 -1.0933 -1.2636
-1.2366 -1.1564 -1.3438 -1.6178 -1.6322 -1.5205
-1.2952 -0.8716 -0.3417 -0.0344 -0.2651 -0.5535
-0.6751 -1.0699 -1.4060 -1.3321 -1.4898 -1.9548
-2.0765 -2.0026 -2.2955 -2.3252 -1.6989 -1.4529
-1.5430 -1.2753 -1.3438 -1.8143 -1.9936 -2.2288
-2.5587 -2.4640 -2.0972 -1.8999 -1.4565 -0.6067
-0.3282 -0.5742 -0.6472 -1.1663 -2.2180 -2.6344
-2.7659 -3.0706 -2.5235 -1.4709 -0.8599 -0.4444
-0.1452 -0.3624 -1.0050 -1.6620 -2.2946 -2.6245
-2.3892 -2.0080 -1.5511 -0.7337 -0.0137 0.1170
0.0927 -0.1407 -0.8518 -1.5529 -2.0134 -2.1892
-2.1874 -1.8756 -1.2618 -0.8896 -0.7247 -0.5454
-0.4544 -0.3534 -0.0398 0.4252 0.8271 1.1209
1.7464 2.3565 2.4592 2.6368 2.8693 2.8477
2.8008 2.9954 3.4172 3.7047 3.8660 4.2049
4.4924 4.6023 4.5861 4.2418 3.7570 3.3253
3.0180 2.9612 2.9224 2.7134 2.7395 2.7819
2.4484 2.3213 2.1654 1.6716 1.0768 0.5622
0.0503 -0.4778 -0.4769 -0.5553 -0.8365 -0.5869
-0.4985 -0.7842 -0.7743 -0.4787 -0.4499 -0.6085
-0.3120 -0.0263 0.0332 0.4766 0.8812 1.0218
1.4949 2.0032 2.0501 2.0411 2.3754 2.5610
2.3520 2.4736 2.5205 2.2609 2.4394 2.7341
2.7341 2.6548 2.8224 2.8440 2.5944 2.3835
2.0230 1.6715 1.4832 1.5832 1.7572 1.7824
1.8581 1.7545 1.3381 0.8992 0.6469 0.3720
0.0268 -0.1922 -0.3427 -0.4706 -0.2165 0.3080
0.5802 0.7848 1.1173 1.3687 1.2363 0.9010
0.4810 0.0223 -0.0453 -0.0317 -0.1462 -0.1759
-0.0552 0.2071 0.4819 0.8163 1.1569 1.4498
1.4625 1.1461 0.8992 0.7974 0.7018 0.7217
1.0641 1.4814 1.8644 2.2032 2.4132 2.5069
2.4132 2.3510 2.2014 2.0347 2.0275 2.0221
2.2285 2.5610 2.8584 3.0594 3.4550 3.9939
4.1994 4.1462 3.8587 3.4649 2.8945 2.2528
1.8806 1.7391 1.7031 1.7941 2.0617 2.4105
2.5331 2.2870 2.1510 1.7815 1.1551 0.6712
0.1638 -0.1498 -0.3445 -0.4004 -0.2499 -0.0237
0.0340 -0.0137 -0.1706 -0.5878 -1.0961 -1.5116
-1.6107 -1.8180 -1.9270 -1.7945 -1.8946 -2.1640
-2.3866 -2.6498 -3.1445 -3.5195 -3.8592 -4.2521
-4.5081 -4.3981 -4.3197 -4.2449 -3.8962 -3.8214
-3.6952 -3.4969 -3.5041 -3.5888 -3.5122 -3.5573
-3.7357 -3.7952 -3.9755 -4.1584 -4.1404 -3.9656
-3.7979 -3.3798 -2.8598 -2.4813 -2.3064 -2.3091
-2.5912 -2.9724 -3.1743 -3.3681 -3.2833 -3.1464
-2.8877 -2.3560 -1.9856 -1.8658 -1.7450 -1.7910
-2.0343 -1.7819 -1.2962 -1.1151 -0.5842 0.3016
0.7973 1.1812 1.6751 1.8724 1.5913 1.1920
0.5864 -0.2580 -0.7636 -0.9204 -0.9249 -0.5185
0.0520 0.4449 0.9054 1.2776 1.3191 1.0929
1.1298 1.1181 0.7207 0.6261 0.6747 0.3043
0.0141 0.1187 0.1619 0.2863 0.5486 0.9325
1.0514 1.0109 0.9974 0.5143 0.4990 0.8288
0.3422 -0.1183 0.1917 0.1331 -0.5059 -0.3463
0.2106 -0.1589 -0.7978 -0.7573 -0.8195 -1.1250
-0.9700 -0.6501 -0.4040 -0.3427 -0.5599 -0.6284
-0.6014 -1.3097 -2.1199 -2.1253 -2.3002 -2.7580
-2.4876 -2.0262 -1.9730 -1.5738 -0.9880 -1.1719
-1.3584 -0.9565 -1.1178 -1.6765 -1.8189 -1.8162
-1.6162 -1.1556 -0.6789 -0.0652 0.3827 0.7198
1.2082 1.4696 1.3425 1.2722 1.2055 0.6405
0.4521 0.6224 0.3016 0.1241 0.3809 0.1114
-0.4464 -0.3419 -0.2680 -0.4626 -0.4302 -0.3347
-0.4581 -0.5960 -0.5681 -0.9015 -1.3783 -1.6036
-1.7189 -1.7865 -1.7378 -1.4576 -1.4125 -1.4711
-1.1304 -0.6717 -0.5528 -0.5987 -0.4284 -0.5347
-0.8628 -0.9015 -0.8709 -0.9024 -0.6375 -0.0607
0.5143 1.3470 1.9959 1.9652 1.9742 2.1968
1.9688 1.6453 2.0391 2.3653 2.1292 2.2166
2.5312 2.3428 2.0833 2.1590 2.1932 2.0445
2.0481 2.2554 2.2013 2.0986 2.0652 1.7850
1.4831 1.2713 1.0892 0.8198 0.6278 0.7269
0.8747 1.0712 1.5236 1.9183 1.9787 2.0860
2.2554 2.3086 2.3410 2.3275 2.1536 2.0076
2.1599 2.3194 2.4176 2.5095 2.6177 2.7898
2.9214 3.0836 3.3756 3.6477 3.5991 3.5567
3.5747 3.3251 3.0782 2.9259 2.6456 2.3203
2.2914 2.4023 2.5447 2.8168 2.8781 2.8060
2.7988 2.7519 2.4581 2.1229 1.9012 1.5587
1.1838 0.8621 0.8225 0.3980 0.5755 1.4957
0.7936 0.4205 1.5650 1.4497 0.1979 1.3839
2.7925 1.0144 0.9711 2.6816 1.5695 0.5106
1.5245 1.3515 0.4340 0.5710 0.4016 0.4241
1.0099 0.6197 0.2637 1.1216 1.4533 0.9711
1.5164 2.2499 1.8120 1.3596 1.5641 1.6822
1.1198 0.9648 1.6110 1.4983 0.6945 0.4755
0.9919 1.1910 1.2018 1.8309 1.9895 1.3776
1.3172 1.6011 1.1919 0.7215 0.3853 -0.3212
-0.5231 -0.4050 -0.5600 -0.2987 -0.0833 -0.3978
-0.3338 -0.0355 -0.2879 -0.4203 -0.0824 -0.0635
-0.2086 0.1988 0.5367 0.3250 0.5223 0.7206
0.1150 -0.1644 0.0330 -0.0103 0.2186 0.7071
0.9288 0.9711 1.0018 0.9873 0.7143 0.2745
-0.0121 -0.0635 -0.3194 -0.6682 -0.5673 -0.5871
-0.9827 -0.9737 -0.5682 -0.5492 -0.5447 -0.2014
-0.2699 -0.6736 -0.6646 -0.5664 -1.0116 -1.5955
-1.8289 -1.8100 -1.6100 -1.2612 -1.0972 -1.2540
-1.3342 -1.2053 -1.3342 -1.4775 -1.4504 -1.6442
-1.8299 -1.8145 -1.6649 -1.7965 -1.7352 -0.9431
-0.6114 -0.4970 0.1249 0.4214 0.2150 -0.0112
0.1384 -0.0392 -0.5862 -0.2771 -0.1960 -0.6295
-0.3906 -0.2870 -0.7178 -0.8944 -0.0743 0.2384
-0.6844 -0.3591 -0.0347 -1.0774 -1.0431 -0.4132
-1.2143 -1.9777 -1.2738 -0.9413 -1.4676 -1.5054
-1.4658 -1.9687 -2.3535 -2.4436 -2.9645 -3.4863
-3.5926 -3.7846 -3.6143 -3.3088 -3.3637 -3.2862
-3.3430 -3.0771 -2.5067 -2.8582 -3.3367 -3.3160
-3.5106 -3.9684 -3.8441 -3.5827 -4.0613 -3.9234
-3.1033 -3.0961 -3.1402 -2.4003 -2.0795 -2.1480
-1.7280 -1.4063 -1.6109 -1.3919 -0.8332 -1.0557
-1.2008 -0.8241 -0.8683 -1.2919 -1.4379 -1.4712
-1.9335 -1.9723 -1.5397 -1.8155 -2.4121 -2.3337
-1.8209 -2.0453 -2.6365 -2.8410 -3.0123 -3.0231
-3.2493 -3.6017 -3.5161 -3.2718 -3.1727 -2.9807
-2.3373 -1.8551 -1.7398 -1.6118 -1.2991 -1.4478
-2.0588 -2.0561 -1.8768 -1.7470 -1.3595 -0.7503
-0.1104 0.1915 0.4222 0.7106 0.7845 0.7313
0.6989 0.9521 1.0900 0.6664 0.6827 1.1693
1.4234 1.4225 1.5785 1.7506 1.4126 1.3279
1.5631 1.6569 1.7614 1.9903 2.1138 1.7353
1.3135 1.1765 1.2180 1.2450 1.2549 1.5523
1.9227 2.1066 1.9452 1.7335 1.8389 1.9957
2.1471 2.1111 1.8362 1.5604 1.4802 1.3396
0.9990 1.1341 1.3207 1.4424 1.6920 1.6839
1.6523 1.7001 1.7839 1.1477 0.2140 0.3140
0.6916 0.5087 0.2230 0.3203 0.5429 0.5087
0.3546 0.2636 0.0491 -0.2213 -0.2465 -0.3024
-0.2808 0.0031 0.2014 0.3798 0.2789 -0.0915
-0.1933 0.1302 0.4312 -0.0582 -1.0062 -1.5190
-1.2369 -0.8810 -1.3217 -2.0453 -2.2103 -2.1373
-2.2878 -2.1039 -1.8101 -1.9886 -2.1517 -2.3544
-2.6807 -2.6266 -2.2346 -2.0048 -2.3689 -2.7239
-2.3499 -1.6028 -1.0883 -1.0801 -1.5109 -1.5064
-0.7305 -0.7431 -1.3451 -0.9540 -0.4403 -0.5232
-0.5241 -0.2601 0.2005 0.7358 0.9827 0.9232
1.4685 2.4147 2.7283 2.9410 3.2790 3.3078
3.1249 2.8194 2.4652 2.2534 2.3525 2.2687
1.6902 1.5180 2.0101 2.3444 2.1444 2.1741
2.6310 2.4841 2.2228 2.2579 1.5505 0.6871
0.6024 0.3924 -0.3907 -0.4367 0.6204 0.8998
0.3428 0.9124 1.7325 1.4072 1.1756 1.6865
2.1335 2.1110 2.0542 2.1984 2.2867 2.6148
2.9347 2.7076 2.5138 2.5463 2.7869 3.2781
3.2609 2.9689 3.1032 3.2618 2.8139 1.8280
1.2603 1.2287 1.3432 1.2062 0.5952 0.5483
0.7592 -0.0321 -0.7305 -0.5791 -0.9072 -1.4398
-1.3551 -1.4650 -1.9381 -1.9156 -1.3406 -1.4974
-1.8642 -1.3316 -1.3082 -1.7020 -1.3659 -0.6801
-0.0591 -0.1492 -0.3322 0.4284 1.3585 1.2089
0.5672 1.2089 1.2936 0.3554 0.7457 1.2368
1.1043 1.1224 1.4387 1.1863 0.3086 0.4735
0.6438 0.2067 -0.1330 -0.6098 -0.6918 -0.6611
-0.4809 -0.4683 -1.2974 -1.4398 -1.0595 -1.2469
-1.5894 -1.6083 -1.5371 -2.0193 -2.2356 -2.2319
-2.4455 -1.9931 -1.2028 -1.0901 -1.7714 -1.9715
-1.4867 -1.3226 -1.3434 -0.9414 -0.2448 -0.1348
-0.2385 -0.2042 -0.1655 -0.1628 -0.4223 0.0084
0.1860 -0.7990 -0.9423 -0.3313 -0.4395 -0.7729
-0.6828 -0.8054 -0.8648 -0.5611 -1.3235 -2.1085
-1.9841 -2.2725 -2.4023 -1.9778 -1.5416 -1.4542
-1.6570 -1.5786 -1.4173 -1.6191 -1.6804 -1.1947
-1.4750 -1.9463 -1.0090 -0.5557 -1.2920 -1.3569
-1.1965 -1.5155 -1.1532 -1.0919 -1.4524 -0.8459
-0.9144 -1.3200 -0.8288 -0.9243 -1.1505 -1.0478
-1.1640 -0.8892 -0.5981 -0.8360 -1.3930 -1.4299
-1.3055 -1.6507 -1.6516 -1.4551 -1.3064 -1.3425
-1.4290 -1.3001 -1.1550 -1.2407 -1.0343 -0.2394
-0.0601 -0.0457 0.4942 0.8601 0.8862 0.7447
0.4915 0.0012 -0.4918 -0.8306 -1.4633 -1.6886
-1.1902 -1.2470 -0.9207 0.2643 0.5104 0.4644
1.4819 1.6991 0.3545 -0.1890 -0.5413 -1.2632
-0.7054 -0.2358 -0.6522 -0.3359 0.4212 0.4401
0.2562 -0.0295 -0.2421 -0.1827 -0.5152 -0.4287
-0.1664 -0.5909 -0.6396 -0.5062 -0.8360 -0.9721
-0.9244 -1.1668 -1.7760 -1.3687 -0.5395 -0.6567
-0.1863 0.0219 -0.5215 -0.4638 -0.5215 -0.9316
-0.8072 -0.7369 -0.9009 -0.5332 -0.4404 -0.2683
0.4761 1.0844 1.3953 1.7468 2.2984 1.9991
1.4440 1.8018 1.9063 1.4728 1.9604 2.5020
1.8928 1.9189 2.4146 2.1334 1.9793 2.2569
2.3443 2.2614 2.1812 2.2154 2.1722 1.6927
1.4656 1.5071 1.2746 1.1169 1.2935 1.2764
1.0195 1.1277 1.2079 0.9988 0.9015 0.8528
0.7284 0.6176 0.7185 0.7356 0.5040 0.6014
0.8285 0.8438 0.8068 0.9763 1.1601 0.9555
0.8339 1.0952 1.2475 1.0736 1.2088 1.2673
1.0520 1.2890 1.2268 1.1682 1.4350 1.4178
1.6747 2.0523 2.1460 1.9423 2.0009 2.3452
2.0189 1.8838 2.4596 2.3966 2.3136 2.5624
1.9955 1.8892 2.3335 2.7363 3.1509 2.9283
2.8544 2.8472 2.6435 2.7534 2.8877 2.5714
2.3109 2.4768 2.3533 2.2857 2.7543 2.8571
2.6056 2.9616 3.0995 2.7967 2.8985 3.2383
3.4537 3.1590 2.5119 2.0261 2.2001 2.8976
3.0778 2.6552 2.5200 2.6813 2.5696 2.3325
2.1676 1.9793 2.2010 2.3280 1.8982 1.7972
1.9459 1.5359 0.8627 0.5662 0.2832 -0.1205
-0.1548 -0.2269 -0.8487 -1.1317 -1.1705 -1.8031
-2.3042 -2.3006 -2.4943 -2.8350 -2.7196 -2.6421
-2.9269 -3.1621 -3.2360 -3.3442 -3.5956 -3.6920
-3.7885 -3.9426 -3.8047 -3.9011 -4.2400 -4.1805
-4.2995 -4.6392 -4.4527 -4.1372 -4.0633 -3.9029
-3.6118 -3.5361 -3.5875 -3.4712 -3.4235 -3.3937
-3.1252 -2.7935 -2.6412 -2.3934 -2.0005 -1.9581
-1.9608 -1.7184 -1.5219 -1.3201 -0.9335 -0.5036
-0.3260 -0.2368 -0.0827 -0.2314 -0.5243 -0.6523
-0.7920 -0.7595 -0.5081 -0.2440 -0.1485 -0.2449
-0.1746 -0.2576 -0.5126 -0.5541 -0.5577 -0.5387
-0.5838 -0.6090 -0.4928 -0.4270 -0.5387 -0.4784
-0.2702 -0.4513 -0.5541 -0.2990 -0.1602 -0.1359
0.0687 0.1822 0.0065 0.0407 0.1633 0.0975
0.2273 0.3598 0.4850 0.7536 0.8176 0.7338
0.5751 0.5959 0.6103 0.5211 0.5778 0.6373
0.7455 0.7320 0.6779 0.5986 0.4192 0.2020
-0.0088 -0.0206 -0.0088 -0.1368 -0.1386 -0.0052
-0.0278 0.1155 0.4237 0.6148 0.6229 0.6238
0.8383 0.9563 1.0384 1.2186 1.2817 1.1150
1.0933 1.2069 1.2907 1.4151 1.5007 1.4277
1.1240 1.1168 1.1438 0.9563 0.9482 0.9798
1.0050 0.9861 0.8175 0.5165 0.3273 0.3390
0.4003 0.3336 0.3606 0.4976 0.3435 0.4850
0.5977 0.4138 0.4201 0.2227 -0.0467 -0.2711
-0.4360 -0.4793 -0.5974 -0.7244 -0.7307 -0.8830
-1.1633 -1.2165 -1.2742 -1.3463 -1.3589 -1.5238
-1.7491 -1.9059 -2.1231 -2.2412 -2.2556 -2.5079
-2.6269 -2.4791 -2.4169 -2.2051 -2.0519 -2.0555
-1.8654 -1.8275 -1.7852 -1.6635 -1.6959 -1.6500
-1.6788 -1.7383 -1.7419 -1.7554 -1.6950 -1.5157
-1.3805 -1.4067 -1.3391 -1.2048 -1.1805 -1.3021
-1.4310 -1.5707 -1.7095 -1.7230 -1.7500 -1.8194
-1.7735 -1.7041 -1.9807 -2.2024 -2.1393 -2.1826
-2.1375 -1.8654 -1.6626 -1.7185 -1.6040 -1.3238
-1.3787 -1.6635 -1.8383 -1.8257 -1.9816 -1.9934
-1.8176 -1.9411 -1.8789 -1.6410 -1.6239 -1.7473
-1.7825 -1.6311 -1.5130 -1.6527 -1.7852 -1.8005
-1.8420 -1.7599 -1.8041 -1.7645 -1.5716 -1.5923
-1.6428 -1.6464 -1.6626 -1.6473 -1.5283 -1.4959
-1.3481 -1.1246 -1.0723 -0.8479 -0.6443 -0.5929
-0.6046 -0.4820 -0.2766 -0.2180 0.0262 0.3200
0.3849 0.4489 0.7778 0.7778 0.4804 0.6021
0.6814 0.7084 0.9247 1.2248 1.3916 1.4510
1.9746 2.3054 2.1540 2.3378 2.5992 2.5334
2.4451 2.5811 2.6028 2.4451 2.5902 2.7037
2.6496 2.7452 2.9317 3.0146 2.9714 3.2913
3.4625 3.3327 3.6103 3.8582 3.6941 3.6085
3.8383 3.9284 4.0249 4.1447 4.0168 4.0411
4.0519 3.8482 3.7347 3.7879 3.7942 3.5779
3.6085 3.7635 3.6608 3.5103 3.4220 3.4427
3.1435 2.8299 2.8984 2.7803 2.5505 2.3820
2.3477 2.3802 2.0071 1.7142 1.8557 1.7232
1.3951 1.1752 0.9175 0.7156 0.5038 0.4029
0.4570 0.5696 0.6174 0.5219 0.4831 0.4498
0.3092 0.0866 0.0785 0.0055 -0.2712 -0.3586
-0.3505 -0.2802 -0.5605 -0.8741 -0.9075 -1.0156
-0.8561 -0.6768 -0.7038 -0.6398 -0.5497 -0.6191
-0.6173 -0.6560 -0.7489 -0.7299 -0.9994 -0.8876
-0.6389 -0.5362 -0.0675 0.0577 0.1235 0.2344
0.1650 0.0667 -0.0838 -0.1937 -0.2045 -0.0360
-0.1865 -0.3704 -0.4163 -0.2253 -0.1009 -0.3848
-0.1072 -0.1351 -0.5082 -0.5506 -0.5614 -0.6696
-1.0048 -0.7822 -0.4785 -0.4488 -0.2469 -0.0703
-0.0775 -0.0180 0.0965 0.0415 0.1830 0.2938
0.7426 1.0923 0.9021 1.1554 1.3717 1.3104
1.4140 1.3473 1.1599 1.5132 1.7195 1.5438
1.6078 1.7051 1.8790 1.6033 1.4284 1.5095
0.9968 1.0932 1.5095 1.2942 0.9535 0.6894
0.7327 1.0472 1.0481 0.8985 0.9941 0.9355
0.9904 0.9499 0.7651 0.7904 0.6182 0.6597
0.9418 0.9283 1.0670 1.4059 1.2842 1.2788
1.0346 0.8652 1.1202 0.7102 0.6624 0.5894
0.3082 0.2731 -0.0955 -0.1199 -0.1640 -0.4605
-0.5038 -0.4758 -0.6462 -0.9760 -1.1707 -1.2229
-1.6429 -2.1187 -1.4600 -1.2446 -2.0647 -2.0809
-1.7988 -2.1061 -2.6324 -2.4909 -2.4071 -2.6045
-2.6387 -2.6550 -2.4684 -2.5468 -2.6270 -2.9974
-2.8451 -2.2521 -2.7496 -3.1452 -2.7153 -2.5369
-3.1542 -3.1542 -2.5297 -2.5531 -2.8397 -2.4432
-2.1196 -2.7180 -2.7406 -2.3531 -2.5207 -2.7712
-2.4053 -1.9926 -2.1557 -1.8096 -1.2905 -1.1950
-1.1896 -1.1509 -1.1977 -1.1752 -1.0616 -1.0905
-1.0436 -1.0409 -0.9670 -0.6119 -0.1758 -0.3569
-0.2893 0.2244 0.0712 -0.1361 -0.2361 -0.1667
-0.0856 0.1595 0.2271 0.2875 0.8237 0.6002
0.4046 0.3947 0.0802 -0.0721 0.1595 0.3686
-0.0568 -0.0406 0.0531 -0.4371 -0.6913 -0.2722
-0.1073 -0.5552 -0.4894 -0.5741 -0.6381 -0.1974
-0.3803 -1.3338 -1.0553 0.5569 -0.1100 -1.5546
-0.5101 0.3253 -0.5164 -0.8382 -0.0658 0.2343
0.0342 0.1135 -0.0802 -0.0442 -0.1505 -0.4335
-0.0703 0.1288 0.2802 -0.0712 -0.1352 0.2874
0.0297 0.0144 0.0486 0.2226 0.2748 -0.1271
0.0423 0.2685 0.2379 0.3154 0.2964 0.1387
-0.1424 -0.0532 0.0964 0.0747 0.3884 0.3370
0.4632 0.7615 0.8831 1.0526 0.8912 1.1526
1.3436 1.4320 1.4049 0.9723 1.1382 1.4347
