Archivo de aceleración parte de la Red Nacional de Acelerógrafos (RENAC) Ecuador
          
Evento: 201604162358
Fecha del evento UTM (aammdd):                  2016    4   16
Hora del registro UTM (hhmmss): 23   58 45.00
Estación:                                      APED 
Componente:                                        E
Frecuencia de muestreo (Hz):            1.000000e+02
Unidades: cm/s^2
_____________________________________________
-6.3295 2.5396 12.8229 9.4353 -5.3971 -14.2339
-7.4936 2.1993 1.3920 5.7598 13.7581 15.4289
13.2330 3.8426 -14.3618 -25.2391 -17.9388 3.3083
20.7770 21.4860 22.7660 11.8436 -14.5356 -21.0184
-7.6279 7.0122 10.8238 3.9906 11.2440 18.9811
6.0780 6.2610 12.6160 1.4177 -10.6247 -15.6363
-13.7457 -5.9038 -0.9152 3.5189 17.3075 18.7043
4.5773 -6.2164 -12.9255 -7.1277 -8.8325 -25.9849
-28.0254 -19.2832 -13.5195 -4.5401 1.3294 9.0141
18.5415 18.3926 15.2532 -3.5828 -17.6722 -8.2615
-1.2444 0.9478 0.7124 0.8816 18.4459 37.2167
21.5604 2.4163 -8.5015 -23.9261 -30.6976 -50.5985
-67.5955 -61.3177 -56.6409 -57.9807 -53.8767 -34.5423
-20.5283 -16.7582 -14.8133 -13.5618 -0.2688 12.6398
37.3196 59.7419 45.9404 23.7057 28.0101 59.4054
75.7384 61.3383 42.8222 30.5628 26.7181 42.8314
58.4729 55.2821 31.7122 -7.1498 -18.5532 -11.1968
-18.8033 -32.8384 -40.3290 -47.6974 -54.8579 -50.4358
-53.9825 -67.2590 -83.5580 -103.5628 -95.1848 -64.1049
-54.2143 -52.8763 -35.5033 -5.4698 25.2091 39.5587
46.6328 56.7552 62.4215 63.8265 79.3770 93.5464
77.1241 62.7157 57.1230 40.7955 16.8780 -13.3063
-28.9598 -30.6012 -30.0733 -12.9164 8.0199 -2.1071
-25.2338 -12.9955 16.4559 9.4360 -18.0180 -33.4647
-40.9654 -39.6266 -39.4022 -59.7482 -85.3742 -80.9429
-66.6383 -45.9522 -12.8410 -11.5518 -23.9023 -9.1987
26.4661 55.1818 56.4186 49.8126 64.3258 94.5836
129.2736 148.7046 139.9091 118.9636 67.0339 -6.1881
-55.0162 -70.4582 -66.4131 -60.6595 -49.1596 -35.9824
-16.8962 17.7478 43.4741 46.6143 28.0229 -5.6134
-35.2367 -44.3255 -41.3121 -29.4178 -6.5614 25.7966
88.0281 145.0669 154.9180 141.6958 142.6770 154.7589
150.5787 156.9999 179.0865 166.8712 121.8022 95.3799
74.2477 14.1487 -33.2587 -44.3660 -78.0684 -120.1075
-135.5017 -149.9690 -165.7641 -146.3533 -112.3879 -116.3006
-140.6714 -167.0570 -190.0641 -207.1392 -221.2507 -207.4758
-197.3911 -210.3466 -190.2876 -140.4415 -104.9487 -80.9669
-55.2572 -25.3699 1.6124 9.1196 0.6570 -13.0774
-24.1322 -12.4172 5.5702 2.5301 7.4433 17.9050
27.0876 46.6069 62.1933 74.0297 74.2550 63.4485
47.9963 53.9017 68.7478 60.3689 62.1234 62.5740
54.9509 55.9403 68.6752 88.1890 81.3990 53.7527
27.8600 2.3701 -7.8470 11.8672 36.2132 60.7063
61.5395 24.3666 6.8704 2.2165 -31.4105 -95.1261
-157.0588 -183.3928 -189.6853 -193.4297 -187.1648 -175.3321
-143.3428 -104.1258 -83.8690 -42.6346 -8.4190 -21.1061
-33.9273 -45.0079 -78.1632 -113.8850 -143.7906 -159.7862
-151.8247 -144.7791 -143.6205 -124.8552 -90.1220 -61.3520
-40.5214 -30.0367 -49.6599 -88.2893 -107.8390 -111.8592
-114.9627 -105.0159 -74.6736 1.4275 68.7542 86.2477
112.3289 106.7408 31.5041 -69.8422 -109.6762 -63.5332
2.9052 65.2277 100.3509 133.3066 184.2469 204.8384
157.8227 29.5124 -123.8226 -232.0242 -250.3325 -168.3665
-76.9449 33.1464 142.5113 94.3655 -41.5468 -141.6481
-212.4636 -240.5669 -215.0172 -204.8019 -226.7690 -220.2604
-172.0025 10.6928 237.0843 268.4188 225.9641 239.0466
252.7975 236.5950 154.1050 57.8262 8.5015 53.8372
183.3632 299.5217 378.0752 406.5941 373.2540 285.4700
226.8073 241.3647 256.1566 246.8269 229.5743 208.4614
151.3913 115.0461 129.7902 104.5127 19.1251 -48.4664
-40.6025 -49.6453 -121.5017 -214.6016 -296.4700 -305.6830
-243.7697 -154.0676 -58.7719 36.7427 89.5792 91.1571
54.6859 -38.5473 -139.6472 -199.0033 -206.9132 -195.3067
-153.9462 -62.2220 25.5647 105.8138 178.7498 223.7608
234.2106 210.3565 192.7610 176.0049 137.8905 60.0496
-73.5757 -168.2011 -203.6488 -226.1696 -238.3159 -266.9093
-292.6466 -300.1051 -279.2469 -198.5582 -63.5839 102.6588
202.0714 177.8495 101.2611 7.1819 -90.8890 -215.8283
-353.8160 -416.1468 -388.4720 -333.3726 -284.2557 -211.4917
-145.4358 -84.5469 -17.1476 14.8491 24.1283 29.3900
58.2482 105.7071 164.7808 211.0471 184.9208 120.9496
52.0798 10.4491 7.8798 24.1816 88.6485 169.1542
263.6628 367.4966 420.1261 451.0947 473.0186 460.2948
412.5711 353.9819 294.9247 186.8859 85.1800 83.9533
138.7520 183.0247 175.0862 126.2140 61.1061 -21.3812
-83.2642 -65.9582 27.1159 104.9907 118.6442 61.8519
-52.3599 -185.3048 -306.3231 -418.1634 -515.2477 -558.4620
-521.0694 -423.8646 -407.0635 -455.5413 -449.6681 -269.2395
101.3484 313.0656 302.3970 245.8823 129.0572 -22.5794
-130.8583 -152.6654 -100.2602 16.1107 116.3968 91.2278
-17.1200 -52.7039 3.5873 92.8159 171.9735 191.5139
220.9211 266.5860 298.0410 303.8103 259.7914 162.4074
34.6451 -62.8916 -149.7744 -145.1739 -29.1947 80.5619
170.4608 220.3795 181.8485 55.3028 -57.7991 -82.2573
-45.6592 -22.4921 -51.5223 -188.4176 -357.0428 -378.9051
-269.4253 -37.1414 197.6786 295.8240 313.8702 300.8723
247.7067 193.9599 199.2326 155.5107 89.3693 85.3224
106.2330 161.2524 181.5432 223.9519 295.4957 270.4766
222.6480 177.7160 152.4633 190.1778 219.9225 214.7996
210.6368 218.3270 205.7761 171.5045 131.7413 68.0201
-19.4640 -110.1630 -200.1354 -273.0135 -293.6987 -264.7191
-205.0927 -167.3627 -205.8274 -221.2051 -173.8602 -167.1089
-209.4514 -267.7831 -307.8580 -314.2498 -291.9065 -239.6651
-224.3923 -286.5548 -383.9406 -459.2573 -495.7506 -475.4819
-418.0835 -382.6183 -352.5684 -366.8729 -391.3320 -254.6114
36.4648 302.7923 526.2457 756.7438 858.1674 830.7897
724.9890 568.4337 477.0884 418.5452 394.1900 451.3621
494.3732 466.6322 497.4941 449.6683 185.0898 -68.2453
-228.9781 -240.0936 -220.9146 -187.8448 19.5165 234.4182
419.6386 556.4391 533.4844 406.3897 251.7324 77.0096
-20.7579 -31.5737 -99.9027 -205.6556 -324.5230 -414.9498
-478.8125 -566.6976 -626.3672 -669.2403 -694.3772 -717.8147
-711.0716 -697.7105 -680.1986 -633.2786 -548.1163 -331.2174
-300.2552 -302.6617 -108.2430 -104.8287 -130.6681 -110.0628
-71.1502 105.3381 297.9250 517.9982 689.0897 731.2952
694.4240 607.4346 307.2676 -113.6546 -383.8663 -397.6641
31.3217 252.5967 68.8264 -41.3780 -219.8820 -396.8301
-475.4866 -451.4394 -348.7983 -271.6297 -201.8634 -28.6174
158.5488 245.5401 260.1103 151.5565 -8.6328 -148.7952
-184.3984 -160.7429 -168.8359 -159.8675 -161.4602 -176.4590
-215.6778 -294.0649 -338.8994 -327.8951 -276.2054 -163.3894
-51.4802 29.4163 98.7771 132.6193 143.7670 164.7566
222.3389 273.5973 303.1848 331.5005 351.2534 406.9174
482.7472 532.8755 550.3838 510.6095 379.0569 218.5898
133.3604 49.8414 -94.4591 -189.6840 -149.1796 -69.1494
3.1659 159.4499 317.0497 369.0604 342.0854 283.4402
232.2074 129.0725 -46.7694 -200.5991 -297.9905 -361.9571
-404.1240 -409.3397 -398.7447 -430.8627 -498.3319 -544.2019
-575.8427 -583.1025 -566.9028 -553.3670 -499.1862 -443.8449
-323.9751 -218.6020 -169.3261 -34.9384 -3.4209 -23.2877
53.3393 142.5228 259.4712 457.4089 654.0768 755.2880
800.8444 750.3905 733.4735 746.3831 612.4120 321.1454
-339.3574 -1141.5876 -1380.4960 -935.3565 -548.3555 -53.0131
614.3136 611.3306 507.9557 488.3784 371.7418 374.0388
418.8632 410.5661 206.2696 22.5159 -105.7760 -134.0062
-98.3130 -104.1208 -60.3806 -42.7703 -84.5914 -166.4544
-269.0164 -382.0484 -463.1601 -433.1046 -236.6740 82.4954
323.2796 436.0211 518.3686 526.0984 454.2447 331.4526
201.7234 158.6489 182.2914 191.9678 138.3093 5.4941
-183.3190 -397.4969 -588.1987 -647.9943 -561.7709 -356.8335
-122.5818 18.7834 155.8691 307.5783 375.1018 391.5966
384.4812 330.0898 268.7815 192.2446 118.1794 141.2528
194.6538 178.2012 106.9766 44.1170 -32.4309 -111.7633
-164.3202 -205.5473 -222.4275 -298.3400 -378.8411 -398.9268
-404.6455 -414.5307 -434.6550 -411.0557 -358.4335 -293.1372
-226.1645 -193.6833 -165.0190 -134.6711 -127.9934 -173.8679
-267.5949 -360.6304 -416.1087 -400.5434 -369.3477 -312.1452
-190.9623 -127.5787 -103.7881 -77.5331 -38.7188 46.1161
131.3657 252.2066 387.5625 509.2466 603.1078 662.4032
743.4349 792.1646 768.1220 687.5989 545.9330 392.9630
196.5002 53.7511 214.0627 399.4063 379.2709 338.7693
320.6570 315.5507 298.5740 262.3124 228.3470 171.5225
104.3383 33.7132 -45.1254 -116.5836 -195.4755 -229.9568
-215.7019 -224.6915 -233.5587 -231.4373 -235.5789 -245.0016
-266.5420 -282.3749 -262.3277 -225.6708 -201.4452 -196.8852
-208.7410 -261.4487 -371.9289 -474.6657 -540.8521 -598.0298
-662.9758 -729.6045 -758.0940 -739.9872 -691.7411 -637.7222
-545.5538 -451.4397 -379.3607 -302.7319 -266.9402 -176.6809
-206.6518 -306.8193 -222.3181 -127.5116 -56.1508 14.7897
160.8207 325.5406 444.0642 595.1794 689.6190 627.4188
325.8597 -35.6007 -229.1817 -80.7295 381.2148 659.0513
670.9145 629.7710 584.3839 613.3065 644.6282 657.0642
670.9328 644.9031 567.7354 451.3066 359.9355 301.3491
267.5703 294.2400 348.6314 349.6273 326.1457 317.4817
277.2155 192.8716 75.3209 -48.9765 -177.3733 -340.4758
-488.0709 -574.3477 -622.8135 -643.9963 -665.8890 -658.1280
-624.8467 -581.4053 -508.3645 -488.3036 -466.7116 -509.4450
-545.9778 -386.3448 -285.9548 -221.3591 -112.3235 -92.8410
-135.8759 -222.3587 -326.6623 -425.8183 -432.8455 -361.5234
-289.1180 -159.4348 5.0396 164.7434 315.1726 372.7834
295.0547 153.5718 20.2140 -94.4520 -144.9482 -90.1494
55.2572 251.4726 373.5530 414.0583 494.9217 587.7181
625.6927 588.6054 443.2439 335.9967 353.7900 408.5713
456.0376 432.4401 413.8357 467.9733 505.3622 524.1542
557.0483 572.7377 565.2801 545.1098 528.5689 523.6539
453.3396 343.9003 250.4142 136.3872 23.1915 -70.0123
-132.2768 -189.5179 -238.2072 -269.3744 -304.9858 -268.7270
-182.0962 -158.0022 -209.9135 -259.3053 -222.6070 -153.0136
-128.6115 -126.6685 -127.9320 -153.1883 -197.3543 -211.1724
-211.5973 -207.2855 -186.4761 -197.3948 -233.9764 -288.7907
-339.9655 -356.5184 -375.9623 -374.3365 -292.2271 -150.2063
-37.8014 25.0159 83.1940 121.6072 156.3911 195.1455
222.3375 239.4062 228.5675 189.0765 100.7298 -9.6926
-93.0011 -157.5746 -198.0551 -202.3622 -184.3694 -201.3609
-249.5140 -257.2484 -251.5113 -263.8820 -272.0522 -279.4160
-235.1047 -89.7505 66.4158 118.5653 111.5823 134.6087
114.9506 40.7135 -0.3068 -6.3243 39.4463 87.1471
82.8712 80.3865 79.4697 70.4168 65.0806 74.2642
106.8024 144.2134 190.5955 243.6922 281.9896 315.6681
358.2654 360.5817 312.8368 275.1610 214.1489 75.3253
-82.7821 -201.1080 -322.0408 -419.9371 -427.1095 -385.3316
-344.2691 -332.7885 -314.9088 -246.4777 -209.6424 -235.9406
-213.8355 -125.1229 -63.3640 -76.0483 -152.3176 -225.7437
-248.6157 -201.3701 -98.3520 39.0978 183.4754 263.5498
307.9678 330.1942 297.7718 183.5416 6.1117 -119.6460
-143.8651 -65.2565 66.7376 169.1258 203.7358 211.6164
234.6272 265.3025 304.3953 353.4303 386.1001 371.9188
342.5585 295.2485 179.9278 31.8075 -88.9055 -227.2592
-331.1693 -335.5003 -313.9157 -289.1375 -265.3239 -241.6051
-257.6521 -323.1912 -384.4195 -402.1172 -328.0667 -192.6087
-86.9377 -45.8798 -59.6169 -112.1812 -171.4498 -263.4913
-295.2351 -224.1732 -212.8995 -243.6189 -223.5415 -150.9154
-131.4752 -130.8388 -92.3713 -88.7805 -90.4274 -85.9740
-82.7491 -60.7094 19.2087 76.3643 141.2790 230.5057
267.8661 303.4270 332.5344 385.2872 447.9977 497.8953
545.7248 588.7533 596.5630 614.7958 619.1858 596.9290
595.3621 437.5093 238.3522 127.3938 104.0574 163.6884
169.3354 151.4676 117.3137 104.8253 147.8924 181.4762
143.8602 30.0769 -60.9660 -115.4006 -149.8230 -183.4739
-208.7533 -160.2369 -75.0728 -30.5261 -33.0898 -57.2997
-105.5835 -149.1894 -154.0263 -120.5280 -61.6382 -22.6796
-42.5216 -92.0504 -136.7498 -190.0791 -217.6536 -257.8389
-220.7921 -62.4014 49.5879 144.0716 219.0784 292.4079
319.6303 210.1487 76.4874 -32.8369 -103.7683 -143.6722
-169.1097 -159.1519 -149.9426 -175.7332 -220.7204 -199.3234
-120.6007 -140.8142 -207.0972 -240.5643 -278.5812 -286.1454
-277.6506 -272.6648 -254.2398 -193.6902 -92.3677 -33.2618
-68.9404 -139.7816 -185.6644 -223.8790 -257.9052 -254.6499
-225.6492 -215.8541 -216.0500 -201.3685 -182.4993 -173.2219
-155.5013 -111.7914 -57.1361 -7.0832 31.2336 52.4743
62.7171 75.6028 94.5566 107.1939 91.0880 57.4058
35.9297 58.6739 137.6733 209.6999 264.7883 327.0997
364.0730 374.5200 356.9345 285.4837 163.8658 51.2089
-45.4054 -123.1764 -118.1851 -65.2898 8.8701 97.9065
170.4718 228.2444 313.7994 447.8155 520.7110 506.8322
474.1717 473.2962 501.8391 509.8318 557.7873 585.1751
402.0624 131.5850 -49.2501 -237.5859 -339.7709 -295.4238
-274.6272 -242.7087 -139.6446 13.6904 116.7636 114.2450
103.8237 95.6894 41.8506 -64.4034 -186.7569 -302.9963
-418.6454 -528.1831 -645.6133 -714.6044 -675.4003 -610.3054
-580.4963 -500.9304 -335.5631 -183.9247 -151.4425 -209.9709
-231.4948 -239.9657 -249.7838 -184.1233 -101.1440 -14.2134
75.9163 110.2449 109.2904 86.0985 104.9961 168.4920
219.0580 250.5913 254.2805 291.0367 330.6344 313.0995
271.0531 258.0580 278.4545 289.5747 299.2446 289.8551
289.8579 340.8524 371.3337 354.9068 323.4711 291.8450
257.1228 158.5673 10.5086 -81.9190 -85.1200 -30.2550
32.7461 97.2875 144.1239 165.1751 219.3936 283.2711
308.2323 296.4749 241.8996 172.9306 146.9322 148.5671
104.0563 -5.2129 -138.6277 -247.2284 -321.3809 -374.8390
-403.8913 -414.0817 -388.8667 -319.5161 -248.3843 -220.7417
-199.3171 -121.9066 -45.2575 -35.2795 -47.4617 15.4889
65.4333 65.2163 0.0285 -109.3400 -145.0489 -244.6077
-294.4381 -388.7536 -432.1279 -297.0773 -357.6876 -430.0681
-393.6714 -367.8422 -444.1621 -372.9714 -139.9960 -14.6659
121.3502 134.4621 75.7212 -12.0406 -198.5751 -296.6497
-271.3372 -216.1017 -158.0818 -77.5135 -36.7030 -34.1641
-24.0601 -8.2475 -2.5546 -15.2729 -21.5755 -40.9127
-80.8956 -127.2612 -175.1293 -204.6276 -182.3735 -142.4752
-128.0244 -108.5336 -94.0820 -70.4808 -46.3711 -47.6162
-10.5317 74.9276 198.4480 298.9834 368.4591 462.3286
525.5210 563.4377 577.2163 525.0824 441.7445 373.6067
278.3413 175.5448 140.0529 139.8736 164.4890 212.9420
291.1083 392.5531 453.7188 466.0941 453.6269 376.4242
220.5935 55.1711 -71.6496 -146.2417 -133.5923 -50.3657
37.2371 92.9269 86.6730 47.3770 20.6282 8.2933
-25.7172 -77.5623 -114.3646 -142.4761 -179.1230 -261.9386
-317.6385 -284.2882 -227.5318 -181.7906 -125.7100 -43.6457
-3.8255 -23.7291 -30.8915 -21.2224 -4.3827 16.8276
15.2065 9.7397 40.2385 93.8823 143.2796 194.9767
220.1310 222.9236 191.9017 35.5138 -159.6580 -323.7407
-454.7628 -475.2292 -433.3621 -392.7023 -319.3682 -94.1161
178.6583 296.7479 384.2541 435.4197 445.4217 455.2847
291.7786 17.0906 -254.3827 -480.6426 -563.5088 -516.1096
-380.5045 -200.8621 -107.6593 -186.2808 -282.5246 -270.4950
-280.6965 -319.3719 -241.7278 -16.9006 228.4786 345.5852
419.1262 512.2306 556.8877 523.1641 415.7385 298.4196
235.1895 223.3972 273.0391 345.0389 336.4798 299.9920
266.0689 232.0593 210.0113 220.3746 280.7706 275.0253
191.8308 73.2889 -41.5584 -67.0713 -4.7285 99.6790
171.2761 184.1921 195.8805 213.4448 171.7350 74.6636
0.1874 -8.4104 0.7023 -32.4585 -70.1803 -132.6453
-226.8919 -285.7357 -293.3597 -265.2831 -205.7045 -110.0180
-6.4334 68.0419 60.2827 -23.3945 -143.6027 -247.7905
-272.9963 -260.9437 -275.3972 -306.8836 -317.1163 -310.5572
-326.8626 -335.3740 -237.9991 -94.2164 67.9683 221.1019
282.5913 279.4749 121.6608 -113.2309 -262.1567 -365.5867
-431.1268 -418.5032 -349.0146 -253.0577 -182.3351 -209.9575
-303.6035 -341.3180 -238.1886 -57.1273 128.2705 222.7911
257.8232 304.8600 271.6293 237.3752 220.3644 137.3778
32.7412 -40.4495 -36.3988 10.3594 51.8853 34.7284
-59.3076 -163.4632 -235.8355 -218.3061 -152.9095 -79.0237
-1.0569 23.8565 32.3669 27.3894 2.2471 7.5998
46.3928 91.7074 104.7089 49.9625 -43.0077 -121.0306
-179.7714 -214.9249 -216.5875 -195.0277 -187.9352 -206.0458
-196.8953 -152.7781 -91.9811 -11.6611 74.9090 159.4469
221.8669 248.9467 257.2447 259.3965 257.0360 258.6342
245.3127 204.2492 171.1059 148.2302 108.1792 1.9390
-139.9586 -206.2950 -184.5265 -129.0712 -93.3724 -84.6551
-59.5486 -11.4800 25.2634 32.0193 0.0171 -61.7564
-147.6875 -244.7294 -271.4874 -247.3391 -249.6656 -275.0682
-314.8681 -284.2131 -169.5277 -65.0208 6.5772 38.0736
34.7614 19.4343 18.3860 52.8480 139.8687 208.3752
205.3094 184.3207 168.9320 194.2160 222.4535 224.0866
212.8654 176.0052 166.9706 203.0648 247.2961 279.0730
314.8104 358.9800 378.4009 383.4180 386.9472 371.1402
311.1882 178.4411 56.2457 -26.9285 -123.2220 -172.4207
-189.3606 -177.9306 -83.8726 42.8552 125.0685 156.4601
180.3951 178.5422 125.4989 43.0290 -26.6720 -66.5667
-114.0752 -174.3526 -224.6520 -263.6318 -296.1471 -327.1148
-356.0447 -366.4568 -351.9785 -328.2826 -265.2226 -141.9183
-1.7494 135.8171 235.3888 261.1463 231.7115 172.4244
93.4240 -6.4060 -120.9526 -242.7948 -359.3937 -412.2798
-350.6994 -258.8161 -225.7151 -243.7116 -280.8522 -297.7471
-300.0828 -292.3558 -269.1868 -248.4270 -231.5726 -213.4740
-193.0692 -176.9201 -129.7490 -38.1360 55.4254 132.6272
175.6373 198.5249 210.0800 197.5217 171.8515 152.6062
145.9137 144.2080 125.0464 63.8503 -9.2070 -81.2492
-128.2115 -132.7826 -100.6701 -20.7943 52.6189 92.9844
123.7645 159.3263 193.8738 203.6615 211.0032 224.2842
198.7741 147.4016 97.8212 44.5572 11.3605 -16.4715
-103.0655 -231.1405 -300.6759 -277.9612 -225.1864 -201.1990
-177.0194 -134.7532 -120.5866 -101.3965 -51.0631 -0.2497
36.5580 64.6788 106.5615 162.8647 208.5535 228.4553
260.7260 316.0893 347.2115 364.5919 379.0877 391.9016
388.2795 289.4003 212.6243 216.4496 186.6314 171.3071
182.0814 200.6858 213.7425 202.7299 194.0595 158.1290
112.3814 86.9788 38.6095 -15.3957 -70.7590 -132.2935
-132.0801 -119.3039 -135.9165 -158.0905 -177.5206 -171.4157
-170.2875 -200.6409 -275.5520 -365.0813 -444.3042 -516.1441
-524.8458 -473.5146 -412.7581 -368.3071 -336.0290 -284.8165
-234.5649 -244.0786 -278.1305 -231.8330 -127.0585 19.4994
177.3926 272.7573 361.4635 438.4345 459.3644 401.4005
295.4463 192.3380 85.2638 9.1002 3.8183 86.8923
182.4878 247.8651 279.5914 268.8851 285.7055 335.8789
399.2543 454.3491 463.9373 414.5896 331.9230 264.6303
209.0067 150.1389 62.9748 -32.5977 -77.3900 -78.5541
-57.2748 -46.1308 -63.9820 -68.3986 -43.9285 -3.8710
23.0838 2.8040 -30.6805 -42.4563 -25.9522 10.8344
31.5832 30.3997 21.0028 0.1897 -27.5053 -51.6564
-77.3826 -95.9244 -98.7383 -101.9061 -111.4869 -121.9643
-127.2903 -106.0386 -37.2673 53.7369 122.4926 152.0718
156.4443 142.8634 97.7448 29.3449 -29.5624 -55.2647
-69.9067 -96.1304 -116.5233 -122.3698 -126.4305 -139.2242
-157.2180 -174.8614 -181.8187 -172.4347 -143.3328 -86.9359
-18.3135 44.4127 86.8913 114.7325 128.4531 109.3679
62.2299 -4.9451 -74.5486 -130.2890 -164.1992 -182.9286
-186.0827 -172.8605 -137.6013 -68.7104 -8.7098 39.3092
89.3189 136.3079 151.0262 95.2583 9.1985 -55.7052
-85.7828 -89.2421 -79.9869 -88.4348 -112.8194 -148.0915
-198.7072 -232.6497 -251.2586 -254.4605 -255.1961 -277.0676
-305.0789 -330.3197 -345.4610 -346.6693 -310.1705 -220.2072
-109.0428 -2.6757 79.9367 141.3516 185.8431 199.5931
179.7474 140.1810 124.2618 147.2505 184.4132 218.7455
246.5169 266.6421 265.9001 227.1383 159.8667 98.0950
50.9598 -1.9833 -58.0722 -91.5732 -96.2078 -76.3381
-45.5424 -26.8535 -15.0032 4.2880 26.8869 45.1482
46.8963 45.9059 60.4036 68.0726 52.8219 33.2290
40.0640 69.8970 101.0265 136.4035 182.4527 240.2050
296.0171 326.4634 336.9003 338.4755 320.7797 288.0805
254.1436 219.3901 192.6716 176.2236 143.6550 76.1729
-2.6564 -65.6787 -114.1032 -150.4162 -178.0027 -169.0132
-76.6904 42.7831 97.4899 85.8962 25.3613 -61.4378
-140.6763 -196.1721 -216.7093 -224.7802 -254.3254 -293.0716
-297.3456 -262.8882 -198.7781 -110.8756 -43.8302 -16.2447
-12.4405 -9.3287 15.2113 71.0409 151.3020 201.9112
219.6770 239.4372 245.1218 248.1361 239.8887 201.2951
153.5328 120.8133 131.9500 163.2469 157.9733 85.9679
-31.1855 -139.1536 -194.7937 -190.1500 -160.0550 -136.3563
-128.4077 -115.0430 -80.3475 -44.3811 -14.7909 4.3164
-21.5900 -92.8552 -161.6743 -203.0679 -217.2841 -219.3577
-234.9220 -253.1144 -242.4007 -217.6115 -204.1833 -193.5441
-174.4073 -158.3704 -155.8242 -154.0338 -146.4162 -139.7302
-135.4975 -132.1788 -130.3692 -125.3107 -111.8016 -105.2691
-112.0858 -122.1999 -131.1655 -126.0602 -107.0485 -84.4441
-61.1353 -40.8593 -22.0848 10.3891 61.5041 106.1382
126.3306 118.4960 101.6223 102.1473 109.2619 108.4417
101.5836 101.8908 122.4234 160.0624 208.2597 251.5356
279.5525 300.9725 309.6374 300.2947 275.7722 224.9560
152.0669 67.5833 -16.5160 -74.5378 -95.4659 -97.1707
-106.6402 -119.6601 -114.5245 -106.7754 -125.3586 -169.4639
-232.8715 -292.6312 -321.0159 -312.5192 -291.5894 -294.1549
-270.1225 -189.3381 -106.6375 -37.5296 2.5186 7.4290
-15.7409 -70.9479 -108.7368 -100.9510 -61.1703 -17.7290
26.8481 92.2309 147.0590 204.6836 279.8540 354.0093
429.7572 476.0216 482.0824 458.7222 404.1303 335.4942
254.5783 183.3766 128.6662 73.0867 65.0738 96.4405
132.8124 184.9960 213.7843 202.2872 195.2618 203.7042
186.1500 151.0995 134.9586 123.6050 110.2687 73.3672
33.2858 24.9630 5.4519 -21.2205 -35.6188 -42.7132
-49.6043 -74.6786 -117.1526 -167.3508 -218.2994 -275.8035
-330.2501 -365.6757 -380.3205 -364.3084 -322.9332 -264.7000
-207.3228 -172.5969 -154.6280 -155.9236 -155.0905 -132.8273
-96.6301 -48.6305 7.8427 70.2692 99.4520 69.4875
9.4299 -43.2190 -73.4289 -80.5389 -87.7197 -92.1390
-65.2229 -29.1692 9.5007 48.7342 78.1276 97.5908
105.6663 117.5303 145.9518 177.3287 172.1130 131.9093
90.8082 46.1539 4.9912 2.6142 40.9410 91.7489
123.6867 115.5956 79.7773 50.1071 34.4177 28.6806
40.7047 62.4189 83.3700 100.5609 106.1748 94.9664
67.1004 20.8461 -35.4083 -74.6704 -82.0746 -77.7849
-83.9689 -84.1096 -57.9291 -26.0170 -18.4004 -34.7224
-63.1328 -94.2605 -116.1918 -136.5469 -169.2470 -210.4953
-245.7141 -259.3749 -253.3886 -242.4855 -226.3649 -202.0382
-177.0632 -163.2415 -174.4572 -199.4616 -216.5312 -208.0925
-175.2848 -151.6625 -144.1608 -136.8909 -125.4241 -98.1015
-54.1369 -13.7015 17.5145 42.6872 60.0832 81.6264
104.0313 122.2080 145.6611 161.6659 184.7632 220.0491
247.7809 271.8446 291.6213 314.4289 342.2095 366.0700
378.5059 370.9206 344.5424 312.9485 286.8369 271.1374
260.2610 253.7680 262.8458 272.3255 269.4905 250.6737
223.5544 190.3025 135.4155 79.3542 37.0016 -2.1152
-52.9406 -116.2378 -165.0181 -194.6524 -208.3758 -209.0351
-202.9275 -171.3933 -135.6320 -133.0343 -139.7185 -137.8417
-130.7980 -128.6113 -150.0947 -184.3158 -218.3667 -231.7278
-217.3368 -206.9643 -201.6815 -185.5278 -156.2521 -120.8006
-92.0822 -69.0336 -41.7101 -16.3637 7.1244 41.0227
75.1647 89.7570 84.9331 66.3149 38.7753 13.8509
-8.6615 -23.6483 -27.2327 -17.0120 2.1956 10.5957
12.8376 23.8749 46.0747 62.6211 54.9327 34.8148
27.3536 33.6157 38.0654 35.9219 36.5233 41.0935
44.0692 45.2057 31.9403 9.7865 -3.7355 -17.7393
-39.4839 -59.5108 -62.8773 -52.8965 -41.2688 -25.8866
-7.4542 14.6233 35.1155 38.5785 8.5156 -51.7765
-103.2621 -129.0233 -137.2266 -131.1208 -117.9786 -95.1489
-64.6750 -37.8775 -15.6897 6.0163 29.6754 53.9295
73.7678 79.3854 64.9732 30.4028 -12.3655 -49.0280
-80.0582 -100.8584 -110.5064 -109.7404 -97.8616 -74.5391
-34.5175 8.6269 43.9330 75.2225 98.8108 109.7976
106.7070 101.3736 100.5709 101.9603 108.0256 109.5374
108.3613 108.0330 110.1608 117.0069 114.5747 94.6342
55.7189 6.0521 -47.0004 -97.5729 -137.1715 -154.0710
-141.6249 -130.4569 -132.9305 -133.9099 -135.4326 -131.0887
-117.2651 -110.4761 -112.6103 -110.0420 -100.5927 -89.0680
-92.2423 -121.9428 -150.3928 -143.5835 -107.4213 -72.7166
-43.6864 -3.7080 36.5499 55.6103 48.0691 26.8753
-1.4404 -33.1612 -39.6045 -20.8411 4.4024 36.1701
77.1912 121.3903 168.1072 216.9702 251.5922 290.8919
338.1053 369.0482 389.8603 392.3873 379.5991 366.9001
346.6148 321.7088 290.8827 245.4229 201.2946 173.3881
157.6004 148.1115 132.5086 101.1850 66.6237 40.9812
14.0255 -16.0401 -38.7990 -51.9661 -54.9031 -66.1915
-84.4234 -81.9995 -61.4549 -39.8519 -32.9608 -40.9370
-51.8824 -68.2219 -92.9467 -122.2730 -151.5267 -175.3587
-192.9193 -204.4036 -214.0469 -229.2673 -246.6707 -262.9946
-281.6440 -298.5931 -305.3877 -300.2437 -290.6923 -280.3612
-267.1022 -249.6924 -224.7238 -187.9584 -143.7427 -113.4178
-105.9740 -115.2734 -137.1403 -163.2142 -181.8029 -178.6626
-149.2012 -102.8053 -53.2774 0.1485 63.2958 139.2038
216.4515 271.6503 310.7836 344.0740 368.0669 382.0891
387.4869 387.2680 383.9613 373.0021 357.5629 337.9875
299.6763 248.7617 202.9369 172.4400 152.5777 135.3867
153.7621 223.5329 298.7209 342.9678 355.8773 356.3500
327.9258 246.7286 143.3426 48.9527 -16.6508 -65.1442
-117.5595 -166.1301 -209.4391 -239.6721 -261.3854 -287.0611
-297.1311 -284.7631 -274.1313 -274.7879 -276.7658 -279.8390
-288.7411 -291.7223 -282.2086 -269.8655 -260.0576 -254.3196
-252.5430 -252.7720 -250.4704 -238.5015 -214.8323 -181.6577
-146.6522 -124.8580 -126.1775 -144.2081 -154.0234 -141.0310
-120.2961 -111.7314 -125.5982 -151.9277 -174.6700 -191.3479
-192.9976 -178.5754 -163.8322 -155.2427 -146.2734 -140.6835
-143.7713 -142.0021 -128.5629 -99.5961 -58.8665 -8.9276
38.2389 76.5630 112.7942 127.7121 134.4726 125.9474
93.7200 59.1430 17.9233 -26.9756 -69.3365 -88.9542
-89.6733 -67.7126 -3.7882 71.8751 129.1714 158.8232
178.8914 194.9100 194.9367 195.3477 196.8778 178.9052
116.5496 13.4257 -61.4073 -65.5884 -43.9275 -46.9528
-43.1772 19.5757 52.1066 7.9866 -43.6379 -99.3709
-117.0805 -106.1130 -102.0918 -78.0925 -49.9570 -21.2404
13.1931 62.1646 117.2218 176.4748 218.4477 217.3387
184.9283 101.8791 -9.7948 -111.5494 -188.8762 -211.5790
-169.4471 -84.1570 0.8012 49.5061 87.3355 141.7480
191.6649 211.1566 199.6475 193.7909 199.0626 196.4318
184.7839 163.8540 147.4225 145.7388 152.6603 148.0147
118.9992 72.0360 35.4057 32.8788 40.1956 44.0881
55.8528 66.8479 62.8451 51.0040 48.7861 52.2629
42.1754 5.8660 -42.7736 -83.6650 -112.4258 -122.7809
-113.4815 -105.5908 -92.3741 -27.0134 51.4803 90.6679
124.5202 170.4563 217.6908 233.6018 197.8635 131.8665
65.7159 19.0717 -7.9649 -31.2479 -45.4789 -27.1348
19.5434 80.8645 122.0429 129.0140 122.4438 117.9123
112.2203 96.0316 70.8699 40.0383 27.9039 26.6846
30.9026 40.7216 43.6007 50.4246 40.0825 6.6522
-38.8830 -95.5300 -148.0373 -190.2943 -216.7442 -245.5372
-294.1409 -336.3648 -340.9377 -302.7516 -259.9061 -222.1539
-166.2784 -126.8757 -133.4174 -159.9243 -176.8532 -184.4083
-194.9950 -206.0885 -230.7113 -262.1673 -283.5073 -314.9752
-337.1207 -338.0596 -329.2668 -291.1542 -234.2277 -179.4261
-126.9327 -85.1750 -51.4174 -5.5263 49.8260 123.0507
197.5894 227.9815 239.6910 242.8359 228.1019 205.5610
182.6394 188.1953 223.0048 265.2039 280.4942 270.0325
264.4784 241.5761 192.3047 168.0709 200.8014 241.7627
268.3019 301.7523 348.3368 394.2904 400.3695 367.3742
336.9178 315.5263 274.2679 230.9507 206.9081 183.6049
170.5528 175.2645 163.3996 136.4669 135.1326 163.2009
194.3544 189.0633 158.1517 124.9210 73.9687 17.2922
-35.3915 -86.4882 -148.1036 -208.1732 -238.2636 -258.3714
-258.8422 -207.7658 -131.8349 -78.3079 -76.5304 -128.3535
-197.3528 -235.4222 -230.6038 -208.5640 -188.0240 -174.2427
-174.0174 -181.8897 -175.9531 -151.9390 -137.4451 -145.7284
-149.1234 -137.8239 -129.6639 -122.2615 -101.7702 -54.3490
0.0847 45.0065 87.7509 119.3770 129.9674 108.9612
70.6178 35.8708 11.7151 -4.5674 -19.5854 -21.3602
-8.2253 0.5371 -9.2635 -34.1530 -50.9384 -52.3794
-60.3316 -78.2776 -100.0783 -123.7696 -129.5949 -110.1133
-70.0458 -12.1619 36.6680 62.0246 73.9484 80.5260
78.4634 63.0802 53.1243 62.6343 86.3954 106.7019
109.6435 106.5612 98.3284 72.7015 36.1724 -2.8340
-47.5702 -91.9605 -102.4241 -77.9401 -67.7396 -81.8639
-90.8966 -77.9769 -56.1183 -58.0356 -80.9029 -90.3578
-75.6863 -79.1558 -129.5913 -165.7351 -155.8821 -130.7784
-102.7156 -88.7964 -86.4515 -81.1328 -76.7760 -70.1589
-65.7230 -68.3952 -63.2421 -44.9458 -22.8067 -2.7136
15.1385 47.4451 84.1416 108.8949 139.0194 166.4661
180.7909 188.1197 195.5993 206.2652 217.5407 218.6239
202.3930 172.7816 119.1681 62.8190 40.7360 53.2980
78.5507 96.7467 112.1327 135.6226 161.4454 175.3214
169.9209 145.5105 117.9249 91.7747 48.1899 3.9494
-11.4383 -17.7382 -42.7867 -78.8570 -110.4445 -139.5832
-170.0920 -199.2831 -202.6294 -157.5659 -100.8527 -76.6804
-77.6607 -81.6773 -88.1500 -103.3106 -128.4447 -158.0496
-185.7722 -210.6690 -223.7965 -203.8496 -142.7648 -80.4083
-50.0273 -41.8810 -40.1817 -36.0658 -42.1881 -58.4761
-62.4964 -51.6751 -37.1895 -34.9513 -39.9095 -25.6868
1.4390 12.9720 11.3655 15.3876 20.9040 19.4888
15.4474 18.5445 32.8168 46.6689 51.8947 46.4988
27.9395 7.2561 -2.0673 1.1070 7.6303 5.5714
-7.2738 -24.9006 -41.2741 -56.9341 -71.9043 -71.8924
-47.7156 -22.9824 -11.5993 0.7383 18.2254 43.2996
59.2584 53.8377 51.2639 66.1302 95.4087 118.2798
122.0435 118.6632 114.8976 105.6681 75.5657 21.6176
-29.4717 -65.1411 -102.5751 -138.5883 -152.4239 -137.7267
-111.7099 -95.9754 -86.6595 -76.2189 -64.9507 -47.9676
-26.8124 -10.3745 -3.0439 -8.5428 -27.5012 -52.7603
-66.7264 -60.4247 -42.8052 -17.7475 5.8997 21.4180
28.4176 31.2608 39.1294 42.0922 37.9487 42.0977
60.9237 82.5267 98.0073 114.9086 142.5135 185.6184
222.6643 235.6888 231.2170 216.4665 202.5307 182.9415
152.6791 124.7607 105.9559 98.2878 107.9780 128.8637
152.5716 178.3134 191.1494 210.3791 226.6836 203.6581
171.3423 153.5306 128.1042 76.1882 16.8138 -28.2313
-47.5575 -51.2394 -58.5498 -71.3803 -85.5092 -94.3157
-97.0560 -93.4091 -95.4891 -102.5347 -103.9324 -107.9619
-123.9041 -142.9645 -148.9784 -149.5890 -145.4096 -129.4665
-112.1026 -105.9425 -112.5780 -118.8687 -122.4163 -126.2076
-128.6444 -122.0540 -97.0238 -64.5223 -37.8535 -17.5195
0.9000 20.6096 37.1100 49.4228 65.7080 78.1293
87.4499 108.1407 123.7537 117.0548 104.9627 103.2717
104.4588 102.7512 100.0891 100.5507 99.4417 93.6403
93.2292 103.7047 115.9476 107.6092 81.4820 56.2063
31.0299 0.9836 -37.1979 -75.6333 -94.4500 -89.2822
-69.2443 -45.1033 -22.9927 2.0678 26.2280 44.7763
53.4136 45.3528 25.0207 -4.0178 -33.8572 -59.4492
-72.2549 -67.7371 -63.5109 -54.9866 -33.7552 -13.2400
3.6549 23.6312 47.9634 68.0326 81.1132 92.0135
101.8858 112.0478 120.5316 125.0364 122.6042 106.6767
78.3343 51.0209 38.9077 47.3179 74.6009 108.7218
135.2738 148.4987 158.0869 170.8962 176.4797 180.5589
187.7626 187.3442 159.8156 93.4379 20.1001 -32.4402
-69.9239 -97.9159 -105.9187 -90.2404 -73.0568 -65.7381
-55.2184 -39.4049 -30.4457 -28.3105 -28.9404 -46.5112
-86.3663 -128.7263 -162.3469 -190.3482 -218.7328 -235.4227
-221.5191 -180.0538 -119.1446 -57.9624 -15.9196 9.4278
23.7203 33.3995 47.2856 59.8568 63.7897 63.5902
62.0453 60.1281 63.8881 76.1356 95.6126 115.1025
134.1463 157.1342 167.7807 160.5715 142.3625 120.2584
99.0756 78.6129 67.7263 66.5364 67.0284 62.3313
54.8572 47.7491 28.5912 -1.3650 -33.4031 -69.3759
-106.8512 -137.5403 -150.8499 -157.0081 -172.6607 -189.1988
-196.2646 -199.9143 -208.4854 -224.3587 -242.2587 -251.4643
-249.6325 -232.5445 -189.8452 -128.0717 -75.3603 -52.2511
-55.2415 -83.4174 -142.4093 -219.0897 -278.0034 -301.6469
-305.7729 -306.2860 -296.6069 -232.9611 -126.6915 -43.7168
9.6824 42.3559 51.8465 28.7622 -14.0116 -32.7300
-25.6283 -7.7044 20.4384 53.2958 81.9600 106.4476
121.6395 111.6642 90.1872 85.3301 97.6181 122.3356
157.3732 194.6177 231.3602 256.5568 254.4988 231.4126
206.5728 196.1120 203.6891 218.3918 233.5312 247.4698
256.3572 256.5273 252.8160 244.1962 223.2405 196.1708
167.2234 146.2420 135.7196 128.2354 120.8946 110.7152
102.0595 90.8474 79.8992 77.1985 86.7802 106.1864
118.5479 117.7764 101.7919 69.7658 16.5753 -60.8701
-151.5175 -233.1460 -275.3736 -284.1332 -289.6064 -298.4240
-297.9145 -285.0932 -266.2471 -242.4261 -215.5422 -188.7630
-170.0686 -167.2639 -172.7794 -179.9979 -193.7966 -208.8736
-220.6567 -224.8186 -222.0305 -214.8893 -192.5451 -154.5227
-104.4357 -50.8176 -9.9666 6.3480 6.3756 4.4528
3.1645 2.2082 1.1277 9.1876 21.1877 24.3813
15.8828 -1.5776 -21.7295 -39.3729 -47.8760 -43.7702
-19.6688 21.6604 68.3910 119.1584 175.5912 220.4818
241.1561 233.9661 202.1874 160.4306 102.8989 37.0775
-25.1604 -83.9868 -143.5534 -172.3096 -121.5872 -35.5945
22.5909 52.6308 82.5364 122.4991 153.8429 164.9787
163.2720 153.1799 120.2619 55.1264 -25.9227 -109.0896
-174.4834 -189.4031 -170.2902 -137.5478 -99.1134 -68.1521
-38.0599 -14.0357 10.4685 37.4950 51.9926 45.4215
9.5600 -33.4079 -61.3953 -82.3960 -100.3833 -106.1728
-87.2724 -46.9731 -1.7551 40.7263 76.7607 104.5909
114.0411 92.2928 56.8322 32.2885 24.3868 23.5978
21.2152 24.6599 33.0213 40.9957 43.1768 37.0186
40.2205 56.0220 67.6222 69.6139 69.8797 76.6393
87.8440 94.9797 80.9326 26.9955 -37.5965 -66.9798
-63.2289 -49.8062 -43.7345 -35.9817 -11.2311 7.8891
2.3543 -15.1098 -28.2906 -27.8051 -19.5558 -5.2568
21.5435 50.1783 62.0616 53.4629 33.1316 5.3217
-22.2428 -47.9929 -71.1499 -70.0778 -36.1519 12.5411
49.6127 59.3627 48.9019 28.0861 4.2182 -16.8662
-37.7409 -60.9053 -82.4411 -94.8753 -94.0642 -77.4682
-51.5599 -26.6106 -3.9906 14.1300 26.5706 30.4162
27.4276 22.0520 26.4069 48.4109 73.4631 101.4211
121.1785 113.1950 75.7537 24.3241 -13.7866 -39.9634
-57.1370 -63.2290 -61.5471 -48.2771 -23.3610 10.6541
48.7529 85.1276 113.0837 141.3571 168.5629 172.2080
157.4446 134.5506 104.7544 72.6897 37.8516 -2.5635
-54.8399 -112.2061 -153.0617 -169.6614 -173.0546 -171.5152
-162.9928 -132.3516 -74.7197 -18.8727 20.9337 47.5593
59.8951 53.1217 19.4183 -31.7114 -80.5800 -117.8908
-158.0015 -201.3261 -225.4634 -223.6905 -206.0986 -189.2377
-173.9741 -144.7655 -99.4483 -53.4000 -18.5775 1.3077
-1.9557 -34.8646 -81.6063 -121.0798 -144.2000 -142.4152
-117.3501 -82.5102 -56.8888 -52.0473 -53.1931 -53.5168
-58.2524 -60.8676 -59.2805 -51.0643 -38.5070 -24.3900
-6.2602 4.6953 14.5069 37.8111 64.3787 75.9734
66.9112 48.9432 24.0059 -5.4528 -23.8208 -25.2829
-12.0405 7.7041 29.2703 49.0121 54.5966 52.7795
58.1892 63.6219 66.9792 71.2367 77.2239 88.8654
98.9170 103.9074 104.7350 99.0623 88.5859 76.6106
68.5222 62.5874 54.1616 44.4677 32.4280 23.5967
22.3424 20.5585 20.2182 21.3585 21.7723 28.8620
37.3081 41.3109 39.4984 35.0138 32.3894 29.2804
26.2597 26.4141 32.7324 36.3352 35.0809 30.9678
20.0352 9.5165 2.3054 -2.3255 -6.1876 -12.7605
-15.3141 -8.7908 0.7476 4.9380 -2.3292 -19.6425
-41.5894 -61.0277 -73.8821 -84.1563 -91.1246 -96.5978
-98.9895 -94.4801 -88.9903 -81.3654 -69.7607 -58.0199
-50.1936 -46.4667 -38.6533 -22.9464 -4.5297 10.9657
22.0591 32.2634 39.2869 41.9683 41.4156 28.7249
6.0654 -14.8526 -29.2040 -37.5075 -39.8487 -36.7038
-30.5410 -21.5855 -11.0208 0.6722 13.0668 20.8067
14.4838 -8.0359 -38.1457 -62.5781 -77.0877 -87.4014
-93.7261 -91.4814 -78.4891 -61.3487 -44.4317 -27.0081
-12.8673 -8.8700 -19.9607 -37.1314 -46.3601 -45.2023
-35.4367 -16.7294 6.1812 27.0440 43.3273 54.9725
64.5368 70.1092 70.3529 67.9989 64.6931 61.2770
57.7054 51.2833 38.4096 18.2089 -6.8396 -27.5350
-37.9416 -38.9329 -31.0689 -21.9828 -18.1979 -16.0361
-16.5676 -22.5272 -29.5185 -28.7250 -15.0862 3.7830
20.4976 31.4991 38.2909 45.7181 52.8051 57.0139
53.8157 42.3691 24.2853 2.5811 -15.7685 -24.8675
-23.0845 -12.3082 5.9798 28.3285 53.8561 78.3254
96.1012 103.4364 101.2047 99.2755 102.0957 106.4360
106.4581 109.6029 114.3193 109.1128 99.4980 89.3931
80.0182 70.2508 64.5615 69.3680 77.0141 79.7828
74.9469 66.3592 63.4056 66.8291 68.2296 63.5675
55.6575 46.1457 34.8049 22.5206 10.0625 -1.0567
-9.1423 -12.5777 -9.5092 -2.1004 9.3398 23.7132
32.9207 32.2651 21.4778 6.0294 -11.0264 -31.3090
-48.6066 -60.9930 -68.5029 -68.3466 -60.8900 -48.7013
-36.7343 -25.3963 -16.3801 -12.0821 -11.0789 -11.5947
-11.1460 -10.6540 -9.2922 -5.3611 1.3424 9.0280
15.0704 22.3624 31.9800 46.4656 66.6020 88.6151
106.3026 118.4342 131.0643 142.0952 153.0884 160.6866
157.4158 145.5711 128.1603 111.2286 98.5416 90.5323
84.7585 77.4526 69.0121 57.5894 41.5359 22.8185
4.4128 -11.2021 -26.8556 -42.5284 -55.8159 -70.0625
-83.3666 -93.6012 -104.3691 -114.2515 -120.4098 -123.9942
-127.4517 -131.2982 -132.7317 -128.4715 -118.2608 -104.6275
-91.4393 -83.3013 -84.1924 -93.0430 -103.2740 -104.4758
-93.8274 -77.9882 -58.5654 -37.3753 -16.4408 2.9230
20.0745 35.3850 45.2113 46.6679 39.3446 27.3518
10.9985 -10.2918 -29.1610 -41.6742 -50.6757 -58.2436
-62.2050 -65.0280 -70.1628 -78.3100 -87.3428 -92.1189
-95.9525 -99.3512 -99.5112 -99.3723 -100.9411 -103.7669
-108.6028 -110.7738 -111.7366 -109.8736 -96.7093 -97.3374
-95.6794 -83.6683 -94.5134 -93.7236 -85.9368 -91.7539
-88.7341 -74.4654 -54.1553 -52.3300 -56.9719 -43.8545
-36.9993 -32.8558 -16.7361 -4.4187 5.0950 21.6459
38.5335 51.6968 58.7066 60.4877 58.2100 49.8642
41.7400 38.1804 42.6604 54.3396 66.6423 77.7311
90.5635 105.4022 115.1853 120.6658 121.4052 118.6153
114.5784 105.3857 98.5865 94.0136 89.2053 87.1179
86.0108 85.7367 81.7422 74.2221 66.4473 56.8739
42.7974 22.0082 -1.0449 -20.5909 -36.8522 -51.4050
-60.3522 -62.3384 -64.6530 -69.6415 -70.5565 -65.6626
-58.5499 -47.2707 -33.9519 -26.4107 -27.8103 -37.8067
-52.0294 -65.5082 -74.3597 -75.5469 -64.9610 -38.2187
-1.6859 33.4998 63.2381 89.9363 108.9094 116.2290
116.4147 111.6579 104.9994 95.2421 87.2365 82.3583
72.4437 59.9507 49.1744 40.7946 33.3177 26.8082
23.0188 22.0358 20.2592 15.0159 12.6591 18.5093
29.0409 39.3086 48.2852 55.9037 55.4071 40.8755
18.7152 -4.9337 -26.6848 -44.3218 -58.2861 -67.0999
-75.7060 -82.6928 -82.2551 -76.7515 -70.9381 -68.3340
-62.1077 -55.7233 -51.5255 -41.8675 -34.6509 -34.1506
-34.0109 -35.0113 -35.9879 -34.0844 -31.7902 -25.0600
-16.1330 -6.4538 5.8553 16.4733 28.9011 44.6189
58.6347 65.5553 67.6353 67.8008 63.1571 56.0333
49.3151 46.5224 46.7541 46.2337 46.3762 49.4447
55.1790 60.6274 64.7028 68.8491 70.2449 62.5465
48.4075 28.2334 6.4962 -8.7858 -20.4678 -24.6260
-19.9317 -8.1191 6.6130 17.3147 25.4592 28.2325
24.8210 15.7027 1.2989 -12.9330 -25.3037 -34.4762
-39.3489 -42.2115 -44.3816 -44.3264 -44.0230 -44.8350
-45.6414 -45.4777 -43.8529 -40.3981 -34.1369 -29.9254
-27.8325 -26.2104 -27.7681 -29.7442 -30.4035 -30.5157
-28.8072 -21.5051 -9.9086 3.6336 21.1124 37.9678
52.3173 65.3566 74.3065 78.7314 78.3103 76.6468
76.6744 75.1672 71.4467 64.4692 55.0944 42.8598
26.4265 9.9877 -6.2350 -20.2131 -28.9084 -32.6353
-32.3098 -27.1447 -15.8609 -6.2378 -3.4460 -5.8341
-11.4517 -16.6287 -20.1543 -23.6256 -28.8091 -35.7305
-43.4281 -50.1877 -51.3712 -43.0851 -27.0068 -8.5109
10.6883 30.9635 47.6083 57.7518 62.8820 65.5579
68.2007 70.0039 68.9768 64.2687 55.7389 38.8073
13.4957 -9.8002 -25.2514 -32.5489 -33.6368 -31.6312
-24.6978 -13.5372 -3.7284 6.3600 20.4153 35.3847
44.0036 42.7806 34.4035 19.2346 0.4344 -16.7023
-31.3839 -41.2571 -44.0148 -39.2442 -27.4050 -11.8811
0.9852 7.0570 7.7945 2.8022 -10.7887 -29.8427
-46.6549 -58.2256 -67.2427 -74.3094 -77.2345 -74.7140
-66.0546 -51.3179 -34.0911 -17.5971 -2.3068 11.1030
24.9514 37.9447 44.2040 46.2261 49.2514 51.0666
54.4386 59.4290 56.3495 53.5991 56.1269 55.5816
54.8699 51.1163 43.3976 38.2288 33.2687 28.2103
26.5716 28.1220 32.2260 38.7033 47.9962 59.4327
68.2815 73.3961 77.1552 79.2205 79.6122 78.8904
77.6021 75.7216 71.9799 67.3426 64.4350 65.8438
72.0084 80.6844 89.4312 94.1438 92.8436 87.3171
77.6131 65.2589 53.2809 42.2279 33.1308 26.7206
22.5605 20.9578 19.8598 16.2184 10.4657 4.6661
-1.1335 -8.7235 -17.2220 -24.7752 -31.5476 -38.4893
-46.4048 -55.2380 -64.5246 -74.8649 -85.3064 -93.1768
-99.0022 -101.7286 -99.2964 -93.0463 -85.3367 -80.2801
-80.3243 -83.0894 -87.4536 -93.8012 -100.8716 -105.1669
-103.8280 -97.4151 -87.5087 -79.1638 -73.9858 -70.9293
-71.0874 -71.5978 -70.0391 -65.5195 -58.5990 -51.2840
-43.1451 -31.9670 -19.2046 -10.9406 -9.8941 -13.5935
-18.8266 -25.7150 -33.7997 -41.0669 -47.3640 -50.4371
-50.1677 -47.7989 -42.0637 -34.7983 -26.4966 -15.4804
-5.7828 0.7405 4.6541 3.5644 -0.3612 -6.2242
-14.1517 -20.0258 -22.2299 -21.5127 -19.3839 -17.0731
-15.6956 -15.7931 -14.5931 -11.6937 -8.9461 -6.0173
-1.3543 6.1189 12.0840 14.3185 16.0978 17.9783
19.5158 17.6252 11.2895 5.7878 3.1910 3.6903
7.5175 14.5603 25.2575 36.6047 46.4494 55.0592
61.8510 66.4735 68.5692 68.0873 65.7793 62.9958
61.4960 62.5498 64.2409 60.9001 48.2113 29.2998
12.0785 0.8094 -4.3512 -3.2661 3.2811 11.7980
18.1797 21.7494 25.0772 27.9710 28.9761 28.4520
26.7627 22.1153 11.7787 -1.3553 -14.5655 -27.1542
-37.5138 -46.4040 -51.8772 -52.8455 -50.3719 -44.3231
-36.0821 -28.4710 -25.2305 -27.2636 -34.3101 -44.5797
-56.4538 -68.5321 -77.9400 -86.2840 -93.2607 -94.5655
-89.5530 -83.7911 -78.7943 -71.1197 -61.5638 -51.4432
-40.5465 -26.1298 -10.6207 -1.1539 4.2319 9.7060
12.6825 10.5087 6.2383 4.8802 6.2199 6.7625
5.2618 2.1932 -2.7061 -12.8515 -28.2761 -42.3516
-53.1996 -63.4314 -72.4099 -75.9961 -72.3612 -67.2714
-64.8926 -63.2254 -62.1919 -63.9077 -66.4889 -68.2057
-70.4540 -72.8954 -73.3736 -71.3487 -69.7634 -68.0172
-63.7339 -57.5481 -48.7811 -37.1065 -23.8282 -9.6920
2.8847 12.4756 19.8228 25.0826 30.9402 34.5007
32.5347 29.3521 30.6257 39.2005 48.9082 57.1023
65.1962 71.0868 75.9457 79.4749 81.0611 81.6074
79.1650 74.2896 69.2173 63.0757 57.0351 53.9317
50.8079 45.6879 42.9210 43.1426 42.7039 40.9568
39.0947 36.1724 31.3824 25.3851 20.3285 20.0738
25.2224 34.3471 45.9784 56.3105 62.8503 65.8426
64.4191 57.6025 46.1633 32.8132 21.8476 13.7399
7.9743 5.2589 4.5545 5.4244 7.6470 10.8222
13.2038 16.7744 24.8674 32.5006 35.6804 34.9613
33.5029 35.8183 38.5089 38.7609 36.9540 32.6541
29.1258 24.9115 18.3248 13.6314 12.2088 10.9739
7.2451 2.0662 -3.0070 -8.2383 -13.7436 -18.9952
-21.5488 -22.5253 -24.8794 -27.0477 -29.9268 -33.7650
-36.2956 -36.1273 -31.3172 -23.3198 -13.4540 -1.1440
8.6217 15.2360 22.0866 26.5198 28.2761 28.9860
29.5010 28.4545 25.2536 21.6314 17.9744 16.1997
16.5859 20.7533 31.0375 44.6533 57.9960 68.2057
75.4821 80.0045 78.7631 73.1667 66.8503 59.7008
47.9903 30.9538 13.4392 -0.9104 -10.9188 -18.8122
-26.9778 -33.5912 -37.5701 -39.6502 -40.1348 -39.3596
-39.3219 -42.1504 -46.8548 -51.8802 -55.4765 -57.1005
-57.4573 -55.7947 -52.5331 -48.1698 -42.2801 -36.3352
-32.1834 -27.9489 -21.5314 -13.4062 -5.5036 1.4206
8.1214 13.6028 16.4479 13.9164 6.4533 -1.0006
-4.3468 -3.6471 -2.6530 -0.6567 3.1604 6.6703
8.2271 5.9383 1.8390 -2.1647 -5.4190 -6.6310
-5.5689 -1.8778 2.3787 5.7857 8.8919 10.1278
6.2087 -0.7845 -10.9980 -25.4349 -35.5628 -44.0089
-53.4297 -55.3203 -52.9184 -51.0021 -44.1735 -30.7784
-19.5001 -13.2932 -4.7919 1.6201 0.8477 0.1258
-1.6471 -6.1841 -9.8118 -15.4495 -25.0331 -34.3500
-40.9128 -46.3869 -49.1382 -45.5979 -36.1275 -23.3098
-7.4228 10.5976 26.8912 40.0361 50.2661 59.1177
64.8658 64.5844 59.6621 50.8886 41.4403 33.2471
26.5481 24.3375 25.2911 28.1813 34.3735 43.0743
51.2896 56.5135 59.0193 56.8970 51.1939 47.3686
44.7332 39.5910 33.8687 30.2291 26.6438 22.8571
20.6198 21.3030 23.6423 24.8056 25.6525 25.0529
22.3265 19.7710 17.7995 18.1232 22.4101 31.2047
43.0761 53.8744 61.7430 66.0170 66.0198 61.9719
55.7889 49.3290 42.1648 34.8535 27.5394 20.8901
15.0786 9.3727 5.0702 1.0683 -3.6545 -9.2472
-15.8873 -21.9343 -26.6727 -30.7537 -34.0374 -36.1836
-39.1896 -43.9134 -48.6794 -54.7457 -61.9687 -67.3104
-70.7799 -72.5316 -72.6272 -69.9845 -65.2056 -59.7030
-50.9737 -41.7285 -36.1331 -33.6871 -32.3969 -32.3620
-35.0029 -36.0724 -34.3611 -33.5648 -33.6153 -34.7482
-36.1037 -35.2328 -32.8218 -29.6172 -25.7909 -21.3734
-15.6961 -10.3020 -6.1604 -2.4573 0.9533 4.7087
8.2039 10.4182 12.0936 12.6794 10.9322 5.6283
-2.3994 -10.1291 -16.7370 -19.7817 -18.6589 -13.6363
-5.9268 -0.2661 3.2374 4.1248 3.0995 1.0204
-3.2721 -8.2082 -13.0294 -17.2842 -20.5854 -21.9877
-19.8902 -13.6253 -6.4528 -1.4128 2.7933 5.9216
7.4057 7.4747 6.2112 4.7685 1.7634 -4.3939
-10.8152 -14.6111 -15.2520 -15.2410 -15.4727 -13.9196
-12.6865 -12.6460 -12.4556 -12.1016 -11.4258 -12.0271
-13.1812 -12.4271 -10.3094 -6.8795 -2.5815 2.9477
9.8931 16.3897 21.7544 24.8358 26.9388 28.1314
25.8169 19.9925 12.3198 4.6710 -3.4910 -10.9163
-14.5283 -14.1605 -9.0478 1.2015 12.5221 21.9668
27.9705 29.2836 28.1737 23.8114 16.5166 10.4457
8.1137 8.2691 7.5317 7.7744 10.0282 13.0793
15.3910 17.5143 21.5667 26.1939 32.7255 40.1416
45.9937 51.0760 56.0811 61.1745 64.6201 64.0785
58.6770 51.1744 41.0787 26.5728 12.4917 3.0911
-1.1103 -2.3572 -3.3402 -3.6409 -1.3899 3.0286
8.6011 14.7436 18.4586 17.7901 13.2595 6.0364
-2.4492 -10.9100 -18.8411 -26.0163 -31.6835 -35.3902
-36.8799 -35.8739 -33.0592 -30.8734 -29.2844 -26.6343
-24.2379 -22.9322 -22.3713 -23.2660 -25.5180 -29.0693
-34.6224 -39.0078 -38.4082 -34.6234 -30.6288 -27.5125
-26.3345 -26.0256 -26.4237 -27.9962 -29.2909 -32.2390
-36.1526 -38.1177 -37.8363 -34.9664 -29.7525 -21.2200
-10.9918 -1.1481 8.5155 17.5068 26.6389 35.0886
41.0924 43.9274 45.4501 47.3610 48.3513 49.9826
53.8006 58.2264 62.3947 66.2476 69.6177 71.1902
68.7157 65.4053 63.8540 61.6167 59.1109 57.8548
58.1794 59.3445 59.7454 58.4066 55.6406 49.7757
40.5930 31.1005 22.0549 13.9904 5.8138 -1.3945
-4.6801 -5.8268 -7.2144 -10.1487 -14.2186 -18.0862
-21.9667 -27.0859 -33.2275 -38.9104 -43.4226 -46.7964
-50.0636 -52.3045 -53.1551 -54.2632 -56.7046 -61.5157
-67.9029 -75.0919 -81.4478 -85.1969 -87.1868 -87.8056
-86.5955 -81.8892 -72.4951 -58.7230 -42.3973 -27.1282
-14.5579 -5.7808 -1.8553 -1.9132 -4.0640 -5.7165
-5.7542 -4.7850 -3.4452 -1.4691 1.7172 5.6556
10.1209 14.9964 18.9155 21.4544 23.4434 25.6080
27.2623 27.0066 26.1413 24.9974 23.0562 21.9555
22.1183 21.8470 18.3297 11.7182 5.6427 1.6638
-1.6466 -4.6351 -5.3331 -4.5983 -5.2944 -7.7864
-10.9662 -13.5943 -16.3226 -20.0394 -24.2850 -28.2961
-32.3954 -37.9412 -43.3887 -47.1257 -48.8710 -48.5326
-46.2834 -40.4866 -31.7113 -22.6317 -15.2808 -11.6954
-11.4959 -12.0007 -11.9281 -11.1934 -9.1023 -6.7703
-4.6278 -2.5735 -3.4958 -6.3023 -8.8789 -11.6440
-13.1235 -14.9369 -16.9562 -16.9792 -16.6169 -15.4013
-12.9562 -9.9805 -6.1350 -2.3942 -1.0793 -2.0705
-4.8752 -12.1525 -22.4119 -33.1339 -43.8613 -52.5419
-58.2771 -59.2096 -55.4946 -50.2072 -44.5363 -39.0365
-32.7412 -25.4133 -18.5553 -12.5176 -7.5621 -4.0641
-1.2917 1.9975 6.6495 13.2960 21.8046 30.7491
38.4788 44.4927 49.3277 53.7369 57.5200 60.7319
64.4340 69.2323 74.4084 77.7666 79.9321 82.4655
85.3106 88.1262 89.1782 88.7046 86.3212 79.3841
69.4079 60.2069 53.2578 48.7373 47.2366 50.7401
57.8409 63.6386 67.0272 68.3596 66.3752 60.6087
52.1451 42.7078 33.4056 22.7131 10.1603 -1.1731
-10.4367 -17.9696 -22.5545 -23.7490 -23.1679 -22.3697
-21.5872 -21.6708 -23.2966 -25.9596 -27.2663 -25.1743
-21.6387 -18.7099 -15.8657 -13.0436 -11.4087 -11.7857
-13.0749 -13.3995 -12.8091 -12.7080 -12.6216 -10.3273
-7.4509 -5.9631 -3.4261 0.9749 5.9543 11.6316
18.4850 25.1250 29.9003 33.1766 36.4006 39.8388
41.4379 42.1165 43.8397 45.0673 45.6209 46.0899
46.4172 45.1501 42.0098 39.7836 38.3518 36.9081
35.6502 34.2847 32.6028 29.4653 24.0390 16.7240
8.9529 1.1146 -7.1071 -14.7071 -20.3955 -23.5385
-24.6355 -23.0088 -18.1279 -12.4515 -7.7324 -4.7631
-5.0316 -8.8542 -15.5136 -23.3463 -29.5101 -33.0402
-35.6168 -37.7658 -37.6306 -33.4044 -25.3657 -14.9122
-3.2624 7.4899 16.5870 23.8303 27.4358 28.9779
29.2859 24.9493 16.1493 4.0434 -7.6027 -14.4626
-19.0557 -21.4576 -21.0429 -17.4107 -11.6230 -8.2023
-7.4464 -8.7963 -11.1761 -16.2382 -24.0112 -31.1773
-37.5231 -41.0707 -43.7631 -45.9406 -46.1852 -45.7393
-44.1503 -43.8588 -43.4992 -42.2735 -41.6408 -40.1539
-38.6854 -33.9120 -22.8471 -10.6529 -0.6418 8.8765
19.6766 29.4385 36.3894 42.4980 47.3403 50.5772
51.3211 49.5040 46.2976 39.9260 30.6174 19.8550
9.2811 1.7638 -1.9917 -2.2869 1.2129 5.5477
7.7528 9.0631 11.1009 12.0186 8.9197 2.7927
-3.2754 -5.7619 -4.9738 -2.3632 0.9840 1.4630
2.2051 4.9812 5.8456 4.3844 1.0548 -2.2878
-5.4180 -8.6070 -9.2267 -7.9614 -6.6989 -6.0092
-6.2584 -6.1177 -5.0529 -5.2230 -7.3656 -10.0746
-13.3151 -18.2365 -24.5639 -30.6486 -36.4225 -42.9586
-49.4506 -52.3224 -48.7987 -40.0905 -30.7672 -23.4743
-16.5868 -9.9799 -4.2649 -0.1030 2.6336 5.1697
6.2014 5.6322 4.0377 2.2924 2.9214 4.7945
6.9343 10.7118 16.0130 22.5060 27.1681 29.9497
33.8560 37.6785 40.3645 41.6703 41.8505 40.6220
36.7470 30.5649 23.9303 18.6861 15.5680 13.8254
10.5380 4.9821 -0.6842 -6.6751 -14.4747 -23.2895
-30.6137 -35.6243 -40.1917 -44.7840 -48.4180 -51.1942
-51.8112 -50.9312 -50.9008 -50.5891 -50.8438 -52.6949
-55.0517 -57.5216 -57.8342 -55.6641 -53.1160 -50.4824
-48.8447 -50.2470 -53.3983 -54.8981 -54.4190 -54.0944
-53.8020 -51.8655 -48.0567 -43.2695 -38.4051 -32.4942
-25.2436 -17.4320 -8.6172 0.1241 7.3333 12.7384
17.1275 21.8558 27.0954 31.5203 33.7925 33.4439
29.5156 22.2659 14.3219 8.8138 7.3508 8.9710
12.3485 17.4401 23.7739 30.0876 36.3194 41.6132
44.5972 45.7025 45.6031 45.4808 46.0933 46.8243
47.7282 49.6501 51.8662 52.7250 52.3986 52.0575
51.9048 50.5007 47.2041 42.8951 36.6026 29.1901
24.5086 22.7992 22.5059 23.8328 27.4678 32.5308
36.3938 38.4674 39.2224 37.5764 33.5524 28.4903
22.4488 15.5540 8.6059 2.0431 -3.0485 -5.9956
-6.4673 -4.2540 0.9525 8.7061 15.4685 18.9012
19.9072 19.7720 19.1587 17.5329 15.1687 13.6175
12.4561 10.2528 7.3700 4.4072 1.5088 -1.3767
-5.1046 -8.3754 -10.1998 -11.2058 -10.3635 -8.4039
-6.3497 -3.7501 -1.1597 0.6380 0.9801 -0.7367
-4.3543 -9.5203 -15.8624 -21.2482 -24.8280 -27.0442
-27.5563 -27.1895 -26.8051 -27.1196 -28.7113 -32.3169
-37.9068 -44.0871 -50.0578 -55.4224 -59.2505 -60.1921
-58.0192 -53.1042 -46.5294 -38.9937 -29.0755 -17.0763
-5.2996 4.9396 12.2022 15.0749 13.1677 7.3019
-0.5740 -9.7272 -19.0128 -26.6488 -32.8245 -37.0452
-38.0751 -36.0815 -32.4318 -28.2690 -23.8534 -19.9784
-17.0377 -14.9871 -13.2537 -9.1948 -2.7249 3.9097
9.6431 13.0500 14.0266 12.2528 7.0076 -0.5685
-8.6468 -14.4721 -15.6795 -12.3811 -5.6463 3.6743
12.8670 19.8777 25.3352 28.8552 31.1477 33.5863
33.1789 27.9283 18.4358 6.8908 -1.8237 -5.0541
-3.3410 0.6774 4.7373 8.2104 11.6642 15.2183
17.4178 17.8721 16.3181 14.0348 12.1773 9.3240
7.0150 8.2233 12.7502 19.1475 26.3356 33.3849
38.7542 40.2116 37.3298 32.0276 25.9071 19.4022
12.1277 5.1777 1.2604 0.2829 1.2273 4.1892
8.5754 14.5838 20.9259 25.8253 30.7127 35.8474
40.3964 43.9036 45.8393 47.4172 49.3050 51.1405
52.6632 53.9874 55.0458 53.4706 49.1717 44.8645
41.4245 39.2783 37.8934 36.7872 36.1886 34.5922
31.9531 29.3811 26.1305 21.7581 15.9870 9.1069
1.4388 -8.1145 -19.2217 -29.9253 -39.0564 -47.6082
-54.9554 -59.1900 -60.8222 -59.9679 -56.6640 -52.0625
-46.8901 -42.8597 -41.8243 -42.9470 -45.1981 -47.5108
-48.8524 -49.0648 -47.2533 -43.7139 -39.2109 -33.5888
-27.5970 -22.2480 -16.8116 -11.5067 -7.5398 -5.0846
-3.4983 -1.8983 -1.6225 -2.0970 -1.2372 1.2833
4.5643 6.8015 8.5321 9.6347 8.0797 3.9243
-0.7811 -4.1862 -5.5563 -5.0533 -2.6533 1.6888
6.0889 8.0733 7.2549 5.0728 0.7408 -6.8602
-15.6272 -23.5841 -29.9410 -33.8932 -33.0077 -27.4738
-21.0305 -13.5187 -5.4083 -0.1990 1.3991 0.4851
-1.6381 -5.0322 -9.5766 -13.9325 -17.8581 -19.8324
-18.9284 -16.5716 -12.7334 -7.8644 -3.5858 -0.6404
1.0166 2.4125 3.4332 4.0750 5.4222 6.8953
7.7238 8.1734 8.0539 7.2235 6.0061 4.4244
2.9081 2.2000 1.9472 1.5232 1.5278 2.4419
3.7614 5.7136 8.0383 9.2373 9.8957 10.4254
10.8098 12.1155 13.5445 14.9781 17.0268 18.9505
20.4421 20.7335 18.6784 14.9110 10.8824 6.8024
2.4428 -1.6262 -4.2304 -4.4520 -2.4207 1.0542
4.9118 8.8575 12.6875 15.7588 18.3455 21.1418
24.8338 29.0242 32.2803 33.6394 32.1773 26.5414
17.9500 9.2879 1.4156 -3.9159 -4.5762 -0.8732
4.5402 9.2299 13.1049 16.4686 18.6673 18.4484
16.0135 11.8139 6.1623 0.0390 -5.3311 -8.4089
-9.2107 -8.5597 -7.1031 -5.3155 -3.4663 -1.4028
0.4252 0.1687 -2.4465 -6.6875 -12.6517 -19.2669
-24.8551 -29.1659 -32.3420 -34.3770 -35.3379 -34.5425
-31.6606 -28.4174 -26.3990 -26.6188 -29.3581 -33.6883
-38.9830 -43.4199 -45.0723 -43.8668 -40.9766 -36.9315
-32.0404 -27.4372 -22.6196 -17.9658 -14.8044 -13.0076
-13.4085 -16.0651 -18.6426 -20.0449 -20.1654 -19.1116
-17.9346 -16.2389 -14.0347 -11.8324 -8.8761 -5.4599
-2.6406 -1.1840 -1.0194 -1.3404 -0.7417 2.2863
7.1259 12.4906 18.3527 25.3395 32.8053 39.5419
45.6450 50.7052 54.8487 57.7278 59.1651 60.9536
63.8410 66.9316 68.2447 66.7587 62.9067 57.2727
51.1908 45.6845 39.4325 32.1009 25.2650 18.4732
12.6285 9.2795 7.2896 7.1287 8.5567 8.9641
7.3273 3.5875 -1.4507 -6.3317 -11.8959 -18.5075
-23.4050 -27.0630 -30.5738 -32.6217 -34.7182 -36.0084
-35.9560 -36.3596 -34.7348 -30.6934 -25.3517 -18.7429
-12.8357 -7.2586 -1.4646 2.1088 3.3778 3.1920
-0.0650 -5.3451 -10.4964 -15.1677 -18.6592 -21.2846
-23.5080 -25.4887 -26.8368 -26.5959 -24.8607 -21.8997
-18.1673 -14.3337 -10.7741 -7.6136 -4.4559 -1.3717
0.9695 3.1175 6.0187 9.6509 13.2022 16.2864
19.2428 22.2782 25.9159 29.9353 34.1569 38.4356
41.8205 44.9184 48.1837 51.5318 55.3774 58.9756
61.6276 62.8892 62.4735 60.1498 56.3457 53.0822
49.9989 46.0375 41.2945 35.7257 30.5661 24.7747
17.1967 8.9732 0.6761 -7.0904 -14.5167 -22.1738
-30.1003 -37.2885 -43.6315 -49.7337 -54.1659 -57.0542
-59.2142 -59.9076 -59.6519 -59.0138 -57.7558 -54.9714
-49.7815 -43.2444 -35.9827 -29.8935 -25.1716 -20.1665
-16.4230 -12.8101 -8.7788 -4.9829 -0.6932 2.7358
4.7018 6.3037 8.6026 10.7139 12.1162 12.8445
12.8058 13.1663 13.5948 14.5098 16.6036 19.8726
24.5660 29.6281 35.4801 41.3965 45.6963 48.5101
49.1639 47.0287 42.0126 35.6355 30.7987 28.7453
28.7333 30.7931 35.0277 38.8098 40.8006 42.0457
42.5183 41.0939 37.0553 31.2308 24.4951 17.5617
10.6219 3.7905 -1.8463 -7.4593 -13.0998 -17.5688
-22.7275 -29.1478 -35.6913 -43.2344 -52.7296 -62.1504
-70.1027 -76.4550 -80.5488 -82.3272 -80.7667 -75.9189
-69.9960 -63.6263 -56.8005 -50.6266 -45.3273 -41.2987
-37.8513 -33.0623 -27.6875 -21.4318 -12.6649 -2.8891
6.7422 16.6945 25.0220 31.4892 37.3642 41.0746
42.8125 43.2567 42.5578 41.7210 40.4980 39.8286
40.5725 42.0824 44.4042 46.6599 48.4328 49.7597
48.7151 43.6355 35.5710 25.6776 14.4471 5.0806
-1.1742 -4.6501 -4.8340 -3.1669 -1.0924 0.8497
2.0369 1.7702 0.5785 -2.9719 -8.1499 -11.7472
-15.7270 -20.4084 -24.4728 -28.3515 -31.6692 -34.3792
-36.3534 -36.7001 -35.0569 -33.6904 -33.0238 -30.8371
-27.6858 -23.4347 -17.8291 -12.7026 -8.0644 -4.3218
-2.6621 -2.4984 -2.6768 -2.9830 -3.3591 -2.2133
0.6538 4.2493 7.6314 10.4976 15.5423 22.3037
25.8743 25.1736 23.4679 22.3828 19.2499 11.8944
4.7293 1.2662 -1.7149 -4.7393 -3.9182 0.4929
3.5063 3.6230 1.9706 -2.7798 -10.4268 -18.3165
-25.2582 -32.5971 -40.1761 -44.6708 -44.8860 -42.5816
-39.1802 -33.9912 -27.7290 -23.9212 -22.0260 -19.8411
-18.5326 -19.0706 -20.9777 -22.3938 -20.7028 -16.3689
-11.5808 -6.1297 -0.2189 4.0589 6.1187 6.7909
6.2474 4.1536 1.0777 -1.4658 -2.2640 -0.4193
4.6170 12.1279 19.4613 24.0968 26.3773 27.3364
26.5216 23.5929 19.3206 15.3583 13.2488 12.3146
11.7169 12.0451 12.3091 11.4989 10.1536 8.2722
5.5430 2.5710 0.0533 -1.9136 -3.2792 -3.8272
-2.9040 -0.9132 1.5080 4.4616 7.1044 8.9582
10.6198 12.1545 12.2704 10.3964 7.2497 3.5917
0.2786 -2.4580 -4.2263 -4.6502 -4.2668 -4.0231
-4.2383 -4.0369 -3.1983 -1.9210 0.2896 3.6046
7.3103 9.8400 10.7550 11.7839 12.6621 11.6276
10.2768 10.4837 11.2249 11.5320 12.3688 14.4378
16.7495 18.7587 20.7063 22.3275 22.5721 21.3252
19.8585 18.4350 17.1118 16.3679 16.4221 17.8741
20.5610 23.7050 27.0135 29.5873 30.0949 28.5961
26.2043 23.5716 21.5863 20.6603 19.8980 19.6635
20.7321 21.5698 21.2019 20.1343 18.1095 15.1044
11.4427 7.8436 4.8551 2.2868 -0.2300 -2.3891
-3.7666 -5.1717 -6.6439 -8.0618 -9.5699 -11.5359
-14.1677 -16.5778 -18.9052 -20.8942 -22.6275 -24.3250
-24.9540 -25.9434 -28.0713 -29.8837 -30.4538 -29.4828
-28.0418 -27.0717 -26.4878 -25.9186 -25.6069 -25.7788
-25.7485 -25.3108 -24.6092 -23.6703 -22.3554 -20.4887
-18.2109 -15.5378 -12.6017 -9.9276 -7.2186 -3.3759
1.5998 7.1953 12.8652 17.5476 20.4497 21.9375
23.0778 23.4134 22.3017 20.2078 18.2234 16.9931
16.0303 16.2648 18.2446 20.3430 21.3049 21.4226
21.0455 19.7683 16.9535 12.5802 8.4431 5.1088
2.1892 0.4697 -0.2696 0.0099 1.2715 2.0541
2.9617 5.1318 6.8136 6.8072 5.3249 2.1837
-2.0757 -6.0794 -9.2573 -11.2840 -12.0702 -13.1572
-14.6192 -15.1958 -15.6096 -15.7788 -15.0413 -14.9530
-15.6087 -16.5485 -18.0648 -18.6929 -18.9191 -19.6290
-19.7697 -19.9140 -20.2313 -19.1747 -16.4749 -12.3048
-6.5530 -0.2393 6.5515 13.4693 19.3305 24.9517
30.3228 34.3247 36.9105 38.5767 39.9450 41.0043
41.1772 40.3836 39.2976 38.1749 36.2567 33.8245
32.8681 33.0447 32.4874 32.2575 33.1302 33.7022
33.4732 31.9955 28.4534 23.3397 17.3378 10.8421
4.8402 -0.4647 -4.5171 -6.2716 -6.8969 -6.7535
-5.3420 -4.1328 -4.2302 -5.4229 -7.3889 -9.3153
-10.9705 -12.7866 -14.0611 -15.1710 -16.6009 -17.0433
-16.2782 -15.0156 -12.9687 -10.6064 -8.7177 -7.2988
-7.5930 -9.1875 -10.6965 -12.4336 -14.4630 -16.6442
-18.7123 -19.7467 -19.5049 -19.0221 -18.5035 -18.7049
-19.8810 -20.7316 -20.9845 -20.1964 -18.5035 -16.2460
-13.9996 -12.3058 -10.4336 -8.0519 -4.6183 -0.8693
2.7519 7.0121 10.7207 12.5809 12.5442 11.2016
9.0453 6.7004 4.6526 3.3128 2.8254 2.4438
2.7298 4.3077 6.0595 6.8255 6.3694 4.9569
2.5900 -1.0707 -5.6096 -9.7706 -12.8465 -15.2530
-17.3550 -18.7436 -19.7836 -21.2098 -23.0075 -25.2972
-28.0531 -30.7281 -32.9681 -34.7382 -36.2831 -37.6330
-38.0587 -37.4767 -36.2141 -34.0559 -31.5594 -29.4858
-27.9658 -26.4991 -23.9758 -20.8438 -18.2452 -15.9215
-14.6590 -14.9523 -14.7831 -13.3403 -10.8640 -7.5315
-4.5292 -1.8818 1.2299 3.9923 6.2534 9.2098
11.6659 13.4783 15.4931 16.8080 18.0366 18.6379
17.6788 15.7883 13.4875 10.6645 6.8732 2.9357
-0.7002 -3.7954 -6.2617 -7.9582 -7.9398 -7.4497
-7.7072 -7.1683 -5.5692 -4.1274 -3.1150 -2.7370
-2.7196 -3.0065 -3.9996 -5.2373 -6.9697 -9.8939
-12.7408 -14.5551 -17.2944 -20.5579 -21.5023 -21.6448
-21.8563 -19.2972 -15.0590 -10.4686 -4.6736 -0.2166
2.8694 5.4994 6.0419 6.3858 6.7876 5.9389
5.6318 5.8350 6.0069 7.5656 10.4281 13.9758
18.1027 21.8315 25.4104 29.2017 32.6840 35.8233
38.5572 40.8708 42.7393 43.8869 43.9191 42.9747
40.9976 39.1328 38.1912 37.3360 37.5696 38.8661
39.7958 39.6680 37.7415 35.2633 33.2900 30.6343
27.6540 24.2526 19.9776 15.9022 11.6962 7.8800
5.0303 1.6639 -2.5909 -7.1261 -11.1731 -14.6370
-18.0678 -20.0412 -20.2407 -19.9345 -18.6306 -17.2090
-16.8209 -16.6977 -17.6283 -19.1823 -19.1474 -18.3161
-16.7253 -14.0264 -11.6531 -8.9174 -5.4765 -2.5762
0.0234 2.5889 4.2965 5.5342 6.7581 7.4046
7.6786 8.2147 9.0975 10.1798 11.1104 11.3927
10.6258 8.3729 4.9705 1.8045 -0.6921 -2.7657
-3.1546 -2.3997 -1.6797 0.1640 2.3250 4.4261
6.8436 6.1577 1.3245 -2.1928 0.0123 3.0845
0.4123 -2.4999 1.9719 8.1650 7.0744 4.0427
7.6023 11.2446 7.9664 1.3282 -1.5344 1.4725
3.7319 1.4983 -0.1652 2.9309 6.1852 4.4040
0.5410 -0.3611 0.3130 -3.1970 -7.3947 -6.6241
-6.2738 -9.1317 -11.5051 -11.6090 -10.5589 -9.7957
-9.1363 -9.0030 -10.0761 -12.4872 -14.2619 -14.7070
-15.3838 -14.2674 -12.1525 -11.2495 -10.9010 -12.4329
-14.2573 -14.1589 -14.3226 -15.6422 -16.4606 -15.9208
-14.7971 -13.4031 -11.7433 -9.7681 -7.8600 -7.8085
-8.8099 -8.1837 -6.7842 -6.3731 -5.8021 -4.5184
-3.3772 -1.9740 -0.1064 1.4725 1.9157 0.8858
-0.2039 -1.1887 -3.6595 -6.5000 -8.4854 -9.6559
-9.2771 -8.2389 -8.3833 -8.9580 -7.8196 -5.4637
-3.5299 -2.1975 -1.4103 -1.0867 -1.2154 -1.6099
-0.7087 2.3000 5.6362 8.3773 11.1286 13.6445
16.5577 19.8147 21.9453 24.1283 25.9178 25.5766
25.1325 25.4405 25.7752 26.3573 26.5835 26.0750
24.4603 21.1067 17.3356 14.3691 11.2169 7.4679
4.8039 2.8113 0.2154 -2.1469 -3.7056 -4.4946
-6.4017 -10.4606 -14.6400 -17.7333 -21.1062 -25.0290
-27.8153 -29.0815 -28.4406 -26.5049 -24.3955 -21.7619
-19.1347 -16.7871 -14.0128 -11.0344 -8.0808 -4.9746
-2.5396 -0.3686 2.6825 5.8090 9.0384 12.3902
14.7121 16.3047 17.2528 16.2661 13.4900 10.3010
6.6476 2.5777 -0.7612 -3.0463 -4.5626 -5.8555
-6.8863 -6.5746 -5.8914 -6.2886 -7.1043 -8.0597
-9.0942 -10.1471 -11.8069 -13.8805 -15.7223 -16.8653
-16.9821 -16.3816 -15.1724 -12.7237 -9.1135 -5.4132
-1.9438 1.2710 4.1593 6.4894 7.9037 9.2701
11.0016 13.1598 16.1612 19.5010 22.2946 24.2045
25.8422 27.3972 28.2735 28.3508 27.4174 25.4965
23.5066 21.2997 18.0132 14.6964 12.1051 8.9602
5.0825 1.9091 0.3863 -0.1286 -0.2537 1.6829
5.4935 8.4177 9.9165 10.7257 10.9198 9.9156
7.9809 6.3266 5.4769 5.8604 7.1330 8.2512
9.5735 12.1069 15.6177 18.6909 20.4877 21.7677
22.8721 22.6422 20.6633 17.7511 14.1041 9.9634
6.4158 3.7390 1.2939 -1.6376 -5.1494 -8.2529
-11.0492 -14.2842 -17.1983 -19.1790 -20.6337 -22.2016
-23.7418 -24.6604 -25.3731 -25.9818 -25.3133 -23.2443
-20.8572 -18.1454 -15.1891 -13.0079 -11.5955 -9.8630
-7.2405 -4.8083 -3.1890 -1.1742 1.5780 4.1748
6.5307 9.2636 12.1473 14.4830 16.0306 17.3299
18.6779 19.5304 19.6628 18.5575 16.2972 14.3303
13.3234 12.3542 11.0585 10.3431 10.4369 10.1031
9.2093 9.4337 9.8640 9.4769 8.8654 8.0102
6.7137 3.5476 -0.4175 -3.6543 -6.5417 -7.9826
-8.5766 -8.8911 -8.7311 -8.3348 -6.8185 -4.2492
-2.0193 -0.8175 0.0377 -0.4579 -2.9444 -6.1647
-9.5606 -12.9611 -16.3367 -18.2191 -17.8374 -16.0075
-12.7468 -8.0663 -3.0511 0.6437 2.2777 1.5283
-0.8699 -3.1982 -4.5077 -5.1688 -6.0194 -5.4879
-2.1996 1.6423 4.0212 5.4998 7.2387 8.6465
8.6870 8.4010 9.0732 10.4884 11.9210 13.8806
17.1321 20.9289 24.0637 25.9349 27.0191 27.8596
28.1170 27.4963 26.3230 25.0384 24.3331 24.2889
23.9487 23.4880 24.1170 25.9524 27.3952 27.3428
26.4195 25.4301 23.6820 20.2870 16.5665 13.8548
11.9191 9.5246 6.8874 5.7554 5.6653 5.2239
3.8924 2.0358 -0.0562 -2.1785 -3.7831 -5.6526
-8.1712 -10.4995 -12.1915 -14.0986 -16.8113 -18.7589
-19.6794 -21.5323 -24.3636 -26.4197 -27.8101 -29.5977
-30.9338 -30.8197 -29.7549 -27.9443 -24.6891 -20.6992
-17.1368 -13.4320 -9.2517 -5.7491 -3.6976 -1.9367
0.6767 3.6146 5.9209 7.6404 9.4924 11.2322
12.1738 12.9867 14.4727 16.0240 17.1164 17.8906
18.2447 17.7435 16.5242 15.4713 14.4258 12.5664
10.3246 8.8441 8.0680 6.7255 5.1273 4.0532
2.9728 2.0045 1.4169 0.6877 -0.6972 -1.8006
-1.9275 -2.0747 -2.7110 -3.8053 -5.2223 -6.5087
-7.2582 -7.9598 -8.6706 -8.3138 -6.2926 -3.0843
-0.1758 1.3507 2.1166 3.0426 2.6610 0.5129
-1.2931 -2.0756 -2.6485 -3.4853 -4.1657 -4.2982
-3.8816 -3.6480 -4.3037 -5.3060 -6.1437 -6.6163
-7.0173 -8.2881 -10.3166 -12.5281 -15.3843 -19.5425
-23.8248 -27.1517 -30.3067 -33.7293 -36.7583 -38.0300
-38.2608 -38.8549 -39.2383 -39.0700 -38.7068 -38.2756
-36.6811 -33.7698 -31.1077 -29.1564 -27.3964 -25.4166
-22.8363 -19.6381 -16.3305 -12.8748 -8.9815 -4.8564
-1.1064 1.9088 4.8182 8.1415 11.4565 14.7209
18.6510 22.4533 24.5959 24.6244 22.4717 18.9241
14.8956 11.4859 10.0955 10.5479 12.1479 14.3264
16.0597 16.1305 13.8040 10.0771 6.2481 2.5874
-0.1814 -1.9037 -3.6987 -5.9920 -8.4132 -10.8491
-13.5563 -15.7880 -16.3232 -14.7793 -11.5829 -7.9194
-4.7902 -2.4260 -0.2743 1.8195 3.5952 4.9506
5.6936 6.4642 7.2154 6.8108 4.6812 1.0499
-3.2049 -6.8040 -8.1935 -7.1737 -4.4978 -1.1470
1.6080 3.2034 3.4995 3.2871 3.4784 4.4319
5.9851 7.3791 8.2665 8.1478 6.4881 3.7055
1.1482 -0.4104 -1.3713 -1.3934 0.3666 3.4094
6.8669 10.3410 12.8881 14.0035 13.8086 12.9230
12.4550 11.8867 10.4964 8.3418 5.5280 2.9974
1.8259 2.1266 2.8641 3.4664 3.8462 4.0613
4.5340 5.3616 6.6149 7.3386 7.0434 6.4273
5.7165 5.2549 4.9275 4.6075 4.8687 5.5510
5.6963 4.8972 3.3946 1.9132 1.0194 0.6755
0.8861 1.2907 1.6732 1.6447 1.0948 0.6525
0.6590 1.0139 0.8732 0.3518 -0.9907 -4.0942
-7.7181 -10.7545 -13.1325 -15.0580 -16.0759 -15.2805
-13.5242 -12.0915 -11.2888 -11.0975 -10.8501 -10.0869
-8.6855 -6.3903 -3.2013 0.1661 2.6663 4.3583
6.0374 7.7413 9.2889 11.2301 14.0706 17.0306
18.6711 19.2826 19.7249 19.8417 19.7828 20.1966
21.2734 22.4109 23.3727 24.0348 23.8592 22.9939
22.0854 21.3129 20.3557 19.2053 17.8793 16.4908
15.0600 13.1639 11.3873 10.1671 9.1887 8.6369
8.7473 9.3505 9.8443 9.8939 9.4277 8.2047
5.6888 1.9086 -1.9462 -4.8409 -6.0262 -5.4929
-4.0888 -2.6478 -1.8303 -1.6851 -1.8441 -2.0841
-2.2221 -2.1641 -2.7333 -4.4005 -6.6929 -9.3366
-11.7643 -13.6107 -14.7675 -15.3321 -15.2659 -14.2470
-12.7951 -11.5325 -10.8088 -10.4879 -10.4180 -10.2387
-9.4461 -8.4741 -7.6024 -7.0792 -6.5155 -5.5867
-4.5440 -2.8557 -0.4051 2.3085 4.6791 6.6534
8.6120 10.6691 12.4879 13.4829 13.6502 13.3974
12.6691 11.0599 8.8520 6.3922 3.8432 1.6354
0.1549 -0.4078 -0.2451 0.4280 1.2069 1.2777
-0.0814 -2.5403 -5.0847 -7.3836 -9.3873 -10.8825
-11.7110 -12.0494 -12.4944 -13.2926 -14.0292 -14.6195
-15.0535 -14.7418 -13.3680 -11.1795 -8.7583 -6.8438
-5.9868 -6.2029 -6.9302 -7.1675 -6.2765 -4.0934
-0.7757 2.4988 4.7490 5.9903 6.5880 7.1297
7.9931 9.2391 10.8686 12.3573 13.2005 13.2327
12.4014 11.1849 9.5104 7.0791 4.3443 1.8615
0.0418 -0.9403 -0.9514 -0.0640 1.0275 1.9489
2.8243 3.7843 4.5089 4.3508 3.6841 2.3912
0.0537 -2.4696 -4.4447 -5.4434 -5.2392 -3.8710
-1.9187 0.0362 2.0224 3.6841 5.0248 6.2551
7.4110 8.5264 9.1876 9.3200 9.1002 8.8179
8.1613 7.3880 7.1627 7.0285 7.2252 7.6795
8.2036 8.5862 8.7848 9.7991 11.4018 12.9366
13.9140 14.3876 14.2248 12.9154 11.5738 10.6220
9.4735 8.0418 6.5300 5.4441 4.7948 4.0500
3.0330 2.1015 1.5019 0.6909 -0.4852 -1.5160
-2.8834 -4.8577 -7.0674 -9.9170 -13.1235 -15.8904
-18.5590 -21.0353 -23.0096 -24.4082 -24.8625 -24.8974
-24.7135 -23.8905 -22.4855 -20.2022 -17.4601 -15.2164
-13.1300 -11.2900 -10.0578 -8.5543 -6.5285 -4.3685
-1.8112 1.2196 4.7580 8.6698 11.9967 14.5034
16.1356 16.8657 17.4745 18.3085 19.3605 20.2920
21.0037 21.4699 21.4570 21.1324 20.4354 19.6428
18.9494 17.9719 16.5577 14.8970 12.9236 10.4151
7.6003 4.7387 2.1088 -0.4034 -2.6637 -3.9566
-4.3216 -4.2297 -4.0605 -3.9695 -4.0669 -4.2462
-4.2067 -4.1846 -4.4182 -4.9497 -5.9143 -7.1879
-8.4633 -9.6744 -11.0620 -12.6482 -13.9622 -14.9627
-15.8611 -16.4367 -16.7098 -17.0096 -17.4896 -17.7931
-17.6129 -17.2570 -16.8257 -16.2096 -15.8344 -16.1774
-17.0556 -17.8657 -18.6602 -19.6837 -20.1959 -19.5200
-17.7214 -14.8892 -11.4280 -7.9916 -4.8661 -2.5148
-0.9681 0.1620 0.9473 1.3446 1.4476 1.6131
1.6554 1.2489 1.2407 2.0140 2.8039 4.1133
5.7933 7.3042 8.6182 9.3299 9.9755 9.8173
8.5713 7.3639 6.6218 6.3635 6.2218 6.0848
5.4117 3.8558 1.8806 -0.2444 -2.4173 -4.2840
-5.5879 -6.6868 -7.5310 -7.9420 -8.0560 -7.9209
-7.7314 -7.5677 -7.7875 -7.9255 -7.5834 -7.4363
-7.6009 -8.8259 -8.8259 -9.4769 -10.2429 -11.3519
-11.7354 -11.3657 -10.7459 -9.6700 -7.7978 -5.6075
-3.9872 -3.0585 -2.7964 -3.0566 -3.5845 -4.0249
-4.2226 -4.2061 -3.6810 -2.8203 -2.0176 -1.2562
0.4018 3.2009 6.1591 9.1789 12.2493 15.0291
17.1661 18.4259 19.2342 19.9882 20.6144 21.1128
21.8190 22.8912 24.2604 25.5377 26.5188 27.6526
28.7561 29.2361 29.0283 28.3524 27.4586 26.4241
25.1910 23.6701 21.8061 19.6360 16.9895 13.4796
9.8336 6.6805 3.5797 0.5333 -2.3587 -4.9519
-7.6599 -10.6954 -13.3602 -15.0973 -15.6518 -15.1598
-14.1979 -13.6830 -13.3097 -13.2480 -14.1244 -15.2996
-16.5934 -18.0012 -19.4210 -20.3102 -20.0012 -18.2642
-15.5690 -12.5703 -9.1404 -5.2553 -1.3859 1.6928
4.0606 6.0947 7.9375 9.5237 10.9140 12.8865
15.2341 17.3113 18.7891 19.6608 19.9541 19.4383
18.6539 17.9118 17.4557 17.8576 18.4268 18.1748
17.4263 16.4028 15.0952 13.8336 12.1242 10.2731
8.6611 6.5140 4.3558 2.6767 0.9378 -1.0024
-2.8801 -5.0337 -7.6094 -9.8209 -11.7446 -13.5193
-14.8426 -15.2904 -15.2702 -15.9332 -16.3764 -16.1750
-15.9065 -15.2913 -14.1888 -12.2421 -10.3497 -9.1248
-8.4462 -8.5777 -8.6641 -8.7138 -8.6283 -8.0903
-7.2443 -5.9478 -4.2485 -2.5896 -1.9082 -1.2875
-0.2622 0.6399 1.5465 1.8932 2.2748 2.0992
1.1337 0.5231 -0.9151 -2.4176 -3.7243 -5.9064
-7.9975 -9.5405 -10.2145 -10.0655 -9.4393 -8.1795
-6.1841 -4.5354 -4.3147 -5.1901 -6.5611 -8.0839
-10.2697 -12.7433 -14.8831 -16.6707 -17.1332 -16.4426
-15.1847 -13.2564 -10.9971 -8.7469 -6.6145 -4.1519
-1.0834 1.9484 4.1737 5.9788 8.4303 10.9029
12.5986 14.5793 16.8754 18.8212 20.7587 22.3633
23.3518 24.2318 24.4939 23.8355 23.4107 22.7366
21.3279 20.6272 19.9237 18.5655 17.6580 16.4000
14.6970 13.4510 11.9098 10.0018 8.1195 6.0026
4.1212 2.5874 0.9332 -0.4793 -2.0977 -4.6126
-6.9492 -8.6605 -10.5888 -12.5594 -13.8284 -14.1511
-13.8477 -13.5360 -12.9594 -11.6178 -10.3654 -9.7364
-8.8086 -7.7879 -7.4357 -7.4007 -7.6113 -7.8090
-7.3915 -6.5290 -5.4568 -3.9993 -2.8517 -2.2457
-1.2361 -0.5501 -0.4002 0.3943 1.1943 2.0817
4.0164 5.8104 7.3424 9.2100 10.1737 10.5231
10.9250 10.8965 10.6509 9.7921 8.4643 7.2863
5.3516 2.7143 0.3989 -1.4531 -2.7009 -3.3363
-3.5184 -3.5460 -4.3809 -6.2495 -8.8941 -11.9626
-14.2698 -15.9811 -17.8303 -19.0275 -19.5544 -19.3926
-18.3471 -17.1839 -15.2381 -12.6376 -10.3369 -8.0058
-6.5152 -6.1171 -5.9019 -5.8890 -5.3134 -3.8908
-2.1235 0.4467 2.9681 4.7584 6.4569 7.7571
8.5718 9.5015 9.9217 9.8105 9.6127 8.6978
7.9631 7.4610 6.6242 5.6007 4.6702 4.3483
3.7644 3.3074 3.3432 3.4747 3.9134 4.3235
4.9148 5.2679 4.9240 4.0541 2.7170 0.6370
-1.9920 -4.1934 -6.1355 -6.9189 -6.0647 -4.5106
-2.0996 0.3703 2.1975 3.6688 4.4734 4.9111
5.2816 5.1492 4.8816 4.2582 2.7556 1.3018
0.1929 -1.0182 -2.0554 -2.6679 -2.5373 -1.6389
-0.5584 0.6673 1.6476 2.1009 2.9267 4.0467
4.8265 5.3488 5.1897 4.2812 2.8834 1.1483
0.0604 -0.2311 -0.1814 0.5597 1.5363 2.2563
3.1483 3.6540 3.3423 2.7354 1.6843 -0.1704
-2.7856 -5.4927 -7.4799 -8.7737 -9.4910 -9.4864
-8.9944 -8.6781 -9.0036 -9.8413 -10.9420 -12.2514
-13.6758 -14.9752 -15.7467 -15.9536 -16.0648 -15.9775
-15.4377 -14.3425 -12.4639 -10.1209 -7.4643 -4.5475
-1.8982 0.0751 1.4572 2.5928 3.3901 3.4627
3.0673 3.5427 5.1308 6.8770 8.5561 10.0881
11.5143 12.5598 12.8201 12.6895 12.5332 12.1286
11.0187 9.4554 8.4467 7.9455 7.2641 6.9570
7.2145 7.2522 6.9699 6.5202 5.9768 5.4802
5.2273 5.4876 5.5345 4.9432 4.6361 4.9211
5.4306 5.7745 6.0292 6.5248 6.8034 6.7611
6.9616 7.2044 7.2025 7.5924 8.2848 8.5975
8.9773 9.6246 9.8775 9.1253 7.8572 7.0315
6.1791 5.0967 4.2636 3.7570 3.6273 3.7781
4.4503 5.2678 5.6347 6.0411 6.5689 6.8917
7.0149 7.1464 7.3901 7.5648 7.2880 6.7271
5.9951 4.9625 3.8158 2.3556 1.1178 0.4245
0.4953 1.0213 1.0912 1.3321 1.3459 1.0985
1.0709 0.8401 0.6654 0.2452 -0.3672 -1.2675
-2.6045 -3.6611 -4.6753 -5.8459 -7.0662 -8.2616
-9.1719 -10.1421 -11.6152 -12.9927 -13.7154 -14.2957
-14.9017 -15.0663 -14.8419 -14.6230 -14.0934 -12.9872
-11.5214 -9.7559 -7.8506 -6.0400 -4.7268 -4.0740
-4.0841 -4.4583 -4.6303 -4.8767 -5.4202 -5.8607
-5.8579 -5.5213 -4.9365 -4.2551 -3.9498 -3.9039
-4.0216 -4.1880 -4.3802 -4.9255 -5.5131 -6.2965
-7.7090 -9.0543 -9.4386 -8.9458 -8.2211 -7.3899
-5.8699 -3.7650 -2.8289 -3.8965 -5.2363 -5.5710
-5.5250 -5.4211 -4.7636 -3.2979 -1.6455 -0.5227
0.6120 1.8323 2.5854 3.1813 3.9160 4.4282
4.0944 3.8360 4.5256 4.8760 4.4153 3.9500
3.5923 3.0976 2.4530 1.7091 0.7463 -0.7636
-2.4289 -3.2528 -3.5517 -4.1080 -4.2846 -3.6464
-2.9043 -2.6726 -2.7811 -2.4823 -1.8377 -1.9140
-2.9209 -3.9434 -4.5062 -5.0156 -5.9747 -6.7784
-6.5016 -5.3365 -3.9388 -2.6827 -1.2280 0.3840
1.3716 1.6686 1.7136 1.7192 1.6088 1.4608
1.4543 1.5205 1.5224 1.4746 1.3706 1.1840
0.9449 0.6001 0.2773 0.0143 -0.4464 -1.0505
-1.5931 -2.4547 -3.8267 -5.0846 -5.7246 -6.3159
-7.4589 -8.0731 -7.8175 -7.8663 -8.5734 -9.4102
-9.7329 -10.0465 -10.6608 -10.4318 -9.5637 -8.9513
-7.9932 -6.6460 -5.8055 -5.4258 -5.0267 -4.5917
-3.8754 -2.5568 -0.5448 2.1044 4.5330 6.2985
7.5197 7.6833 7.0167 6.3288 5.6355 5.0010
4.4346 3.7660 3.6235 4.0162 4.4401 5.4736
7.1831 8.5137 8.9505 8.8493 8.2277 6.8015
4.8189 2.7361 0.9752 -0.5972 -1.7853 -1.9352
-1.7513 -2.1568 -2.5494 -2.4731 -2.7104 -2.9016
-2.5936 -2.2129 -1.7228 -1.7090 -2.0777 -2.0060
-1.7743 -1.5260 -1.2851 -1.4009 -1.4451 -0.8648
0.0878 1.2281 2.4869 3.5784 4.8428 6.2111
7.1077 8.0603 9.1233 9.5822 9.7302 9.9610
10.0815 10.3233 10.7923 11.1169 11.5049 11.7955
11.4875 10.7730 9.6392 8.3941 7.4175 6.3371
5.5325 5.4966 5.7246 6.0915 6.9550 8.1054
9.1169 9.9040 10.3316 10.5780 10.7941 10.6442
10.7307 11.3661 11.6815 11.6870 12.2341 13.1289
13.6125 13.8810 14.1588 14.2829 14.0677 13.5923
13.1886 12.6819 12.0236 11.1610 9.9362 8.9486
8.3297 7.7587 7.3099 6.7159 6.0713 5.7752
5.2060 4.1605 3.2464 2.3278 1.6795 1.3485
0.4915 -0.3849 -1.1242 -2.0962 -2.5182 -2.7408
-2.6948 -1.6860 -0.6837 0.1135 0.9540 1.6841
2.3738 2.6404 2.6644 2.6312 1.8331 0.4574
-0.7380 -1.7587 -2.7426 -3.4120 -3.6070 -3.9757
-4.5909 -4.8153 -5.1325 -6.1440 -7.4709 -8.2792
-8.5744 -9.1372 -9.5225 -9.4590 -9.6061 -9.7330
-9.5988 -9.2815 -8.9082 -8.9937 -9.3854 -9.4158
-9.1896 -8.8245 -8.3215 -7.7349 -6.5431 -5.3431
-4.7399 -4.0116 -3.3100 -2.7904 -2.1835 -1.8847
-1.8507 -1.9987 -2.7619 -4.0245 -5.4443 -6.4043
-6.8962 -7.1758 -6.5367 -5.2622 -3.8001 -2.5036
-1.6566 -0.9486 -0.9863 -1.8102 -2.6516 -3.1978
-3.7679 -4.3114 -4.7473 -5.4020 -5.6870 -5.5574
-5.3266 -5.2521 -5.4047 -4.9165 -4.3822 -4.6516
-4.8613 -4.7473 -4.6535 -4.5073 -3.9234 -2.7601
-1.9353 -1.5353 -1.0792 -1.0810 -1.2088 -0.9955
-0.9459 -1.3606 -2.1072 -2.7059 -3.0912 -3.5794
-3.7615 -3.5004 -3.6447 -4.4383 -5.4682 -6.3372
-6.8999 -7.5271 -7.8903 -7.6328 -7.2291 -7.0085
-6.9597 -6.7206 -6.3114 -5.9142 -5.2080 -4.0236
-2.6314 -1.5997 -1.3817 -1.8360 -2.7353 -4.1882
-5.7422 -6.6710 -6.7721 -6.3409 -5.7257 -4.8760
-3.8930 -3.0121 -2.1330 -1.0765 -0.1771 0.3020
0.5098 0.3029 -0.4125 -1.6595 -3.1206 -4.1110
-4.4282 -4.2333 -3.9455 -3.5730 -3.1657 -3.5491
-4.5551 -5.0370 -4.4328 -3.1611 -2.0061 -0.8815
0.4629 1.4036 1.6482 1.6040 1.5065 1.5783
1.5737 1.2077 1.0799 1.1884 1.2767 1.3355
1.2564 1.6987 2.8279 4.0850 5.3512 6.5034
7.3981 8.2983 9.1811 10.0979 11.3163 12.3618
13.1609 13.9894 14.9412 16.0520 16.7720 16.8658
16.6690 16.0649 15.0901 14.3149 13.7476 13.1416
12.2818 10.7324 8.6661 6.7057 5.2951 4.5530
4.0969 3.5194 2.6909 1.4679 -0.4705 -3.0535
-5.6090 -7.5740 -8.8366 -9.6844 -10.2913 -10.7640
-10.9083 -10.5212 -9.9520 -8.8688 -7.6881 -6.9212
-5.7929 -4.9073 -4.7244 -5.0030 -5.5786 -6.1055
-7.0517 -7.9474 -8.2380 -8.2665 -7.6265 -6.2104
-4.3915 -2.2177 0.0996 2.4849 4.9245 6.9879
8.4978 9.8431 11.0073 11.9866 13.2262 14.2846
14.6312 14.1209 13.1719 12.2450 11.2740 10.8923
11.1866 11.6997 12.2855 12.6294 12.5825 11.9507
10.5834 8.7838 6.6707 3.9736 0.8794 -2.2775
-5.4030 -8.1874 -10.5323 -12.3695 -13.7728 -14.9783
-15.8804 -16.4910 -16.9581 -17.3939 -17.5576 -17.4519
-17.3829 -17.2928 -17.4087 -17.8583 -18.5121 -19.4363
-20.4110 -21.0032 -21.2368 -21.1660 -20.4257 -19.0344
-17.1190 -14.8137 -12.5921 -10.3585 -7.8904 -5.7037
-4.1221 -2.6545 -1.0434 0.5483 2.0085 3.4559
5.1580 6.8527 8.4794 10.3507 12.4813 14.7112
16.4997 17.5131 17.8055 17.5397 17.1259 16.7793
16.6919 16.9200 17.2777 17.8128 18.1880 17.8919
17.0285 15.8616 14.2900 12.2137 9.8440 7.2086
4.4205 1.9377 -0.2067 -2.4136 -4.7768 -6.8109
-8.1783 -9.4923 -11.0261 -12.1020 -12.5811 -12.9020
-13.1935 -13.2790 -13.1990 -13.1236 -12.8450 -12.1112
-11.5411 -11.0279 -10.0882 -8.8928 -7.4895 -7.6780
-6.6877 -2.6168 -1.4306 -1.3046 1.5368 3.8329
5.5653 6.9888 7.5966 9.0633 9.8054 9.7530
10.5291 10.4481 9.9635 10.1741 9.8826 8.7433
7.9994 6.8536 4.8343 3.0972 1.4007 0.5722
0.4048 0.1501 0.3791 0.3726 0.2816 0.5023
0.0581 -0.1920 0.2853 0.6935 0.7735 1.5202
2.9933 3.4154 4.1566 5.1524 5.5267 6.7506
7.5644 7.8283 9.0872 10.2614 10.8564 11.5231
11.9176 12.3902 12.3019 11.3594 10.8867 9.5571
7.9616 7.1341 4.5271 3.2278 4.1501 2.9483
2.8793 3.5993 2.1234 1.4586 0.1786 -1.6716
-2.3097 -3.7185 -4.4311 -3.3074 -2.4054 -1.1916
0.8949 1.5551 1.1275 0.5059 -0.8431 -1.9382
-2.9783 -3.8748 -3.8776 -3.6293 -3.2357 -2.8201
-2.1865 -1.4840 -0.8578 1.0153 3.3777 6.0011
8.9272 10.4573 10.9042 10.0325 7.6729 5.2407
3.1248 1.5367 0.8848 1.2498 2.4186 3.8384
5.3391 7.0310 8.2274 9.0734 9.8862 9.5957
8.7570 7.6490 6.3579 5.7289 5.6048 6.5032
7.4632 7.6149 7.7639 7.5947 6.9308 6.1464
5.6839 5.5745 5.7280 5.8595 5.5487 5.9018
6.8931 7.4880 7.9285 8.2880 8.3984 8.0168
6.9915 5.4531 3.4816 0.9050 -2.0872 -4.8891
-7.1724 -8.8818 -10.0138 -10.5370 -11.0648 -12.0359
-13.0492 -13.8051 -14.2207 -14.4331 -14.5232 -14.0065
-13.0961 -12.3660 -11.3683 -10.0092 -8.9489 -8.5508
-8.4156 -8.5057 -8.8322 -9.1034 -9.3094 -9.0299
-8.5545 -7.9439 -6.6666 -5.1135 -3.7912 -2.7429
-1.9512 -1.9024 -2.3107 -2.6528 -3.4087 -4.3788
-5.0685 -5.5144 -5.6882 -5.9098 -6.2041 -6.2308
-6.3071 -6.2574 -6.1269 -6.6409 -7.3489 -7.9062
-8.5821 -9.2671 -9.7563 -9.8979 -9.8869 -9.7379
-9.1531 -8.3844 -8.0129 -8.3696 -9.3287 -10.4092
-11.1026 -11.0557 -10.3384 -9.4189 -8.4800 -7.2441
-6.0285 -4.8616 -2.9094 -0.8542 0.7992 2.4709
3.6167 4.7284 6.2153 6.8654 7.0043 7.4135
7.1054 6.5942 6.6383 6.6300 6.9795 7.6655
8.6512 10.1216 11.2453 11.6324 11.5184 10.9216
10.1335 9.6011 8.9951 8.3606 7.5422 6.0443
4.1951 1.9523 -0.0054 -0.8965 -1.1006 -0.8349
-0.6160 -0.8901 -1.5043 -2.3954 -3.3885 -4.0763
-4.3531 -4.3237 -4.1922 -4.2234 -4.2998 -4.4506
-4.9802 -5.2092 -4.6170 -3.6487 -2.1333 -0.2721
1.1936 1.4511 0.5987 -0.2013 -0.9572 -1.5558
-1.8676 -2.1572 -2.2639 -2.0395 -1.3600 -0.5131
0.7191 2.2787 3.2801 3.9017 4.4507 4.7799
4.6429 3.6507 2.4994 1.8759 1.4456 1.3407
1.8401 2.2116 2.0994 1.8971 1.3794 0.3173
-1.1135 -2.5103 -3.7720 -5.5605 -7.1890 -7.5495
-7.9541 -8.9830 -9.5127 -9.3950 -9.5431 -10.4930
-10.8433 -10.4920 -10.6897 -10.7045 -9.6231 -8.1775
-7.6184 -7.2332 -6.4166 -5.8814 -5.6883 -5.3508
-4.5729 -3.9743 -3.5752 -2.6078 -1.1053 0.7219
2.9168 4.8065 6.3697 8.2282 9.8236 10.9344
11.6213 12.3523 12.8241 12.2834 12.0820 12.4489
12.7937 13.1790 13.7850 14.3634 14.2825 13.9110
12.6503 10.6475 8.9353 7.2819 5.8713 5.0465
5.0005 5.2157 5.3122 5.3113 5.0658 4.6649
3.8980 2.8212 1.3894 -0.0598 -1.2828 -2.8083
-4.2290 -5.1642 -5.7601 -5.9329 -5.7693 -5.2028
-4.4552 -4.0800 -3.7729 -3.1320 -2.3541 -1.7168
-1.6331 -2.1324 -2.8902 -3.9063 -5.2203 -6.5279
-7.8971 -9.3224 -10.4314 -11.3270 -11.7767 -11.7758
-11.6728 -11.6388 -11.8493 -12.3891 -13.4963 -14.7735
-15.6977 -16.3505 -16.9253 -17.3860 -17.4770 -17.3593
-17.2940 -16.8600 -15.8834 -14.7891 -13.6011 -12.2861
-10.6530 -8.7348 -6.9371 -4.9435 -2.6732 -0.5591
1.3388 3.0814 4.7136 6.2768 7.5780 8.6014
9.3637 9.5808 9.3113 8.8736 8.3090 7.8805
7.7665 7.6506 7.7067 7.5127 6.8966 6.4193
5.6313 4.8451 4.3292 3.7425 3.1071 2.2832
1.4961 0.7613 -0.1490 -1.3536 -2.5021 -3.4456
-4.6364 -5.7767 -6.8102 -7.6939 -8.2521 -8.9675
-9.3510 -9.0870 -8.6650 -7.8843 -6.8489 -5.8006
-4.6493 -3.6148 -2.6851 -1.9449 -1.4033 -0.8810
-0.8212 -0.9104 -0.6483 -0.4654 -0.2814 0.3576
1.2606 2.1333 3.2542 4.7733 6.6722 8.7191
10.3715 11.6442 12.5739 12.9058 12.8415 12.5996
12.1279 11.4952 10.6391 9.7444 9.1872 8.8754
8.7412 8.7219 8.7734 8.9407 9.0869 9.2212
9.2920 9.3186 9.2147 8.9738 8.7642 8.4055
7.9917 7.5274 7.1890 7.1660 7.1237 6.9517
6.7099 6.5627 6.4717 6.2243 5.9043 5.5761
4.9793 4.1839 3.4271 2.3733 1.1429 0.3172
-0.0442 0.0486 0.3503 0.9866 2.3374 3.6680
4.5894 5.4556 6.2363 6.6731 6.6961 6.6694
6.8018 6.8515 6.8781 7.0345 7.1834 7.3683
7.6478 8.0487 8.5416 8.8855 8.8000 8.2924
7.4841 6.4018 5.3508 4.4882 3.8988 3.3930
2.8643 2.7457 2.5498 1.7985 0.5764 -1.0291
-2.4617 -3.9284 -5.4944 -6.5740 -7.4531 -8.2825
-9.0880 -10.1749 -11.3382 -12.1354 -12.4426 -12.5529
-12.5805 -12.2927 -11.9396 -12.1566 -12.6908 -12.4453
-11.2665 -9.8117 -8.2172 -6.2319 -4.0296 -2.2870
-0.9914 0.3208 1.5935 2.8394 4.3218 6.1746
7.9512 9.4216 11.0758 12.5968 13.8290 15.1697
16.5656 17.9173 18.9941 20.0470 21.1468 21.8327
22.0075 22.0047 21.9835 21.5532 21.0153 20.6153
20.0369 19.2185 18.2538 17.3821 16.4203 15.0897
13.6110 12.2713 11.0087 9.6082 7.9310 5.9172
3.8978 2.1047 0.6132 -0.5464 -1.4264 -2.1372
-3.1698 -4.1547 -4.5768 -4.9234 -5.5064 -6.2255
-7.0071 -8.1437 -9.4338 -10.3488 -10.9676 -11.3511
-11.2738 -10.8748 -10.5060 -10.0968 -9.6187 -9.2380
-9.1028 -9.0476 -8.8085 -8.6660 -8.7009 -8.4711
-7.9432 -7.4973 -7.1984 -6.9051 -6.7092 -6.7570
-7.0274 -7.4136 -7.7253 -8.0067 -8.4389 -8.9456
-9.1166 -9.0531 -9.6132 -10.5695 -11.3539 -12.0886
-12.7874 -13.7281 -14.9033 -16.1199 -17.3640 -18.4960
-19.7622 -21.3117 -22.7692 -23.7595 -24.3673 -24.7067
-24.3646 -23.3797 -22.0933 -20.5549 -19.1434 -18.1025
-17.2767 -16.3581 -15.5250 -15.0201 -14.2964 -13.3116
-12.3139 -11.3382 -10.3718 -9.2849 -8.0334 -6.7304
-5.4872 -4.1842 -2.9280 -1.7473 -0.6733 0.4596
1.7497 3.0453 4.3842 5.6440 6.9865 8.1056
8.7116 8.9323 8.9939 8.9130 8.5801 8.3659
8.0302 8.1507 9.0574 10.0698 11.1181 12.2629
13.3480 13.7029 13.7222 13.7287 13.2910 12.3769
11.0666 9.7332 8.3493 7.0647 6.0982 5.4481
4.8955 4.2499 3.7460 3.1796 2.6821 2.0559
1.1520 0.2996 -1.1681 -3.1295 -5.3272 -7.6739
-9.3088 -10.4813 -11.3870 -11.6537 -11.2895 -10.5806
-9.8118 -8.7470 -7.4716 -6.2688 -5.2748 -4.5060
-3.6922 -2.6421 -1.6619 -0.7515 0.5046 1.6844
2.5157 3.1437 3.5823 4.0476 4.5258 5.0113
5.6578 6.2775 6.8385 7.6817 8.4504 8.5911
8.2371 7.6100 6.7759 5.6357 4.3235 3.1878
2.0798 0.8237 -0.4085 -1.5203 -2.3331 -2.6256
-2.2513 -1.4807 -1.0145 -0.9878 -1.2223 -1.2545
-1.3318 -2.1603 -2.9309 -3.5497 -4.1548 -4.0509
-3.7272 -3.3079 -2.8003 -2.8849 -3.1709 -3.2371
-3.0909 -2.6155 -2.3598 -2.6201 -3.3134 -4.4776
-5.6298 -6.6661 -7.6472 -8.2762 -8.7056 -8.9962
-9.0790 -9.1985 -9.4597 -9.7539 -10.0326 -10.3682
-10.8960 -11.7742 -12.7103 -13.2795 -13.5885 -13.7365
-13.7347 -13.3761 -12.4234 -11.1986 -9.9939 -8.7535
-7.3668 -6.1291 -5.1746 -4.2008 -3.2334 -2.3589
-1.3962 -0.0352 1.5813 3.1952 4.8733 6.3041
7.5621 8.9515 10.1387 11.1208 12.0504 12.7815
13.1667 13.2973 13.4380 13.5842 13.7764 14.1433
14.7456 15.1052 15.0730 15.1796 15.1254 14.7300
14.2628 13.9576 13.7893 13.5704 13.4987 13.3120
12.7483 12.1267 11.5603 10.7658 9.4766 7.9906
6.4982 4.8669 3.3671 2.3262 1.7321 1.2586
0.9698 1.1225 1.4020 1.7091 2.0843 2.4641
2.7786 2.9864 3.2531 3.3386 3.0471 2.7068
2.5441 2.4999 2.6461 2.9367 3.3478 3.9703
4.4742 5.1179 5.8710 6.4108 6.9175 7.0848
7.2752 7.5326 7.3662 7.0958 6.7906 6.3262
5.8020 5.5234 5.3073 4.8641 4.3059 3.5418
2.8199 2.0576 1.1197 0.2967 -0.5282 -1.2022
-1.6767 -2.0601 -2.2468 -2.3608 -2.2744 -1.8293
-1.1323 -0.3599 0.3325 0.8935 1.3919 1.8038
1.9932 2.1100 2.0824 1.6365 0.9109 0.1017
-0.6670 -1.2307 -1.4358 -1.2224 -0.9098 -0.7277
-0.6045 -0.7240 -1.1231 -1.7061 -2.4399 -2.9962
-3.2344 -3.3687 -3.4441 -3.4937 -3.5710 -3.5820
-3.5232 -3.3383 -3.0100 -2.5319 -1.8937 -1.2583
-0.7498 -0.4721 -0.3388 -0.3976 -0.7240 -0.9604
-0.8804 -0.9567 -1.4974 -2.3250 -3.5655 -4.8326
-5.6630 -6.1963 -6.6643 -7.3917 -8.1126 -8.4851
-8.5209 -8.5255 -8.8786 -9.3448 -9.7163 -9.8000
-9.6759 -9.4993 -9.1260 -8.5430 -7.6437 -6.7287
-5.7945 -4.6496 -3.6418 -2.9209 -2.5880 -2.5181
-2.3057 -1.8239 -1.3512 -0.9034 -0.2027 0.6433
1.3109 1.7670 2.4567 3.4461 4.1670 4.4576
4.5220 4.1495 3.2557 2.2645 1.4828 1.0019
0.5946 0.2755 0.2249 0.2065 0.1311 0.0005
-0.1972 -0.4078 -0.5622 -0.6708 -0.5898 -0.1255
0.4437 0.9900 1.5086 2.0153 2.7169 3.4957
4.1394 4.5780 4.7978 4.8833 4.9670 5.1224
5.3339 5.8259 6.5615 7.0792 7.5123 8.0236
8.4089 8.7399 9.0204 9.2659 9.5657 9.8434
10.1597 10.4723 10.7160 10.8668 10.5974 9.8700
9.0038 8.0355 6.9495 5.8406 4.8346 4.0493
3.3320 2.6258 2.0603 1.2695 -0.1659 -1.7135
-2.8860 -4.1117 -5.5095 -6.7518 -7.7017 -8.7509
-10.0465 -10.5422 -10.2231 -10.1789 -10.1992 -9.7725
-9.3762 -9.3063 -8.8842 -8.0373 -7.6529 -7.3734
-6.5679 -5.7007 -5.0616 -4.4069 -3.4717 -2.9890
-3.0101 -2.6028 -1.9913 -1.5011 -0.8667 0.2294
1.3927 2.2883 3.4745 4.9054 5.7431 5.9969
6.4143 6.8668 6.9532 6.6746 6.3674 5.8415
4.8594 4.1504 3.8184 3.8102 3.9582 4.1430
4.5118 4.7849 5.1987 5.6345 5.7090 5.3596
4.9578 4.9053 4.7288 4.4989 4.7067 5.1288
5.1380 4.8851 4.9173 5.1849 5.5122 5.6906
5.8405 6.2663 6.9973 7.4580 7.5104 7.7256
7.9343 7.7808 7.0929 6.3564 5.9757 5.4957
4.7775 4.0888 3.7513 3.4377 3.0414 2.8612
2.7683 2.6837 2.4437 2.0933 1.7136 1.3172
0.8464 0.2450 -0.2763 -0.4511 -0.3701 -0.5044
-0.6193 -0.4115 -0.0722 -0.0796 -0.4253 -0.5642
-0.6819 -0.9587 -1.3725 -1.5564 -1.4718 -1.5996
-1.8488 -2.2083 -2.4805 -2.6948 -2.9743 -3.1408
-3.2759 -3.2272 -3.1444 -3.2925 -3.6125 -4.1513
-4.8842 -5.7284 -6.6571 -7.5086 -8.0429 -8.2902
-8.3371 -8.1670 -7.6006 -6.6985 -5.7928 -4.7941
-3.6125 -2.3858 -1.2870 -0.0713 1.4046 2.8308
4.1163 5.2189 6.3802 7.4929 8.2828 8.9118
9.4938 10.0401 10.3260 10.4180 10.5219 10.6074
10.4575 10.2212 10.0272 9.4607 8.4455 7.0285
5.4607 3.9480 2.6147 1.5866 0.6432 -0.0814
-0.5569 -1.1950 -2.2663 -3.6134 -4.9836 -6.5459
-8.2425 -9.7441 -11.0287 -12.1377 -13.1078 -13.8554
-14.3115 -14.5359 -14.4430 -14.2554 -14.2563 -14.3759
-14.6821 -15.2228 -15.8940 -16.5883 -17.1639 -17.7056
-18.1497 -18.2996 -18.1525 -17.8049 -17.3837 -16.8522
-16.1929 -15.1133 -13.8628 -12.9754 -12.1101 -11.1381
-10.2958 -9.5519 -8.6517 -7.4921 -6.2195 -5.0535
-3.9224 -2.4999 -0.9633 0.4215 1.4514 1.7953
1.9517 2.2910 2.5273 2.7765 2.9346 2.8721
2.6340 2.2671 1.8073 1.0514 0.0261 -1.2806
-2.8089 -4.3684 -5.8397 -7.0940 -8.3004 -9.6283
-11.0085 -11.9768 -12.4301 -12.6527 -12.5451 -12.1956
-11.6614 -11.2329 -11.1041 -10.8136 -10.2830 -9.6393
-8.8945 -7.9299 -6.7390 -5.5013 -4.3326 -3.2962
-2.2296 -1.1068 -0.1100 0.5870 1.3135 2.3700
3.2105 3.7392 4.3710 5.0781 5.5517 5.7457
5.9719 6.2790 6.8004 7.5940 8.4069 9.2639
10.1669 11.0607 11.8497 12.2671 12.2579 12.2846
12.2037 11.5067 10.6754 9.9526 9.3145 8.9466
8.9963 9.5802 10.5356 11.9416 13.3899 14.0915
14.3701 14.6763 14.5632 13.6777 12.4878 11.2630
9.6648 7.8634 6.4795 5.6473 4.9263 4.3047
3.9746 3.4385 2.8417 2.6624 2.2505 1.0872
-0.1569 -1.0204 -2.2314 -3.9896 -5.6227 -6.9947
-8.3805 -9.7341 -10.6196 -10.9653 -11.0104 -11.0803
-11.3920 -11.5106 -11.1069 -10.1708 -8.8844 -7.8775
-7.3570 -7.0379 -6.8163 -6.8779 -6.9956 -6.5460
-6.0485 -6.1497 -6.1276 -5.3037 -4.0954 -3.0719
-2.2811 -1.7735 -1.3367 -0.9349 -0.8531 -0.8080
-0.7804 -1.0535 -1.6623 -2.2876 -2.7455 -3.4407
-4.2094 -4.6342 -4.5938 -4.1239 -3.4517 -2.5938
-1.6632 -0.9009 -0.1211 0.8591 1.8109 2.8261
3.9396 4.8049 5.4109 5.8477 6.2688 6.6302
6.5318 6.1723 5.7907 5.4560 5.5369 6.1144
7.0192 7.7879 8.3461 8.7930 8.8243 8.5401
7.9295 7.0284 6.0058 4.9061 4.0739 3.3336
2.3635 1.5580 0.8692 -0.0310 -0.7722 -1.1621
-1.4002 -1.5427 -1.4011 0.1639 4.0297 9.5351
15.5020 20.1448 22.2267 21.0580 16.1246 9.5360
3.3722 -2.3703 -7.3488 -10.3897 -10.7245 -8.0532
-2.0733 5.9985 13.7990 18.9421 19.8193 16.8280
11.6546 6.1787 1.4642 -2.5874 -4.9902 -4.3980
-1.8425 1.8706 6.4812 10.9981 14.1659 14.6597
13.0192 10.6587 8.2376 6.4978 5.5837 5.1139
5.1010 5.0982 5.3014 6.6228 8.0950 8.4730
7.7097 5.7906 3.5460 2.3331 2.5042 3.1938
3.5267 4.1621 5.4495 6.3414 6.2743 5.9276
5.4688 3.6131 1.1129 0.0333 0.2660 0.4223
0.1317 0.1667 0.0030 -0.5524 -0.5865 0.0802
1.0356 1.3989 0.8618 -0.0504 -1.3203 -3.1437
-4.7667 -5.7249 -6.3879 -6.7870 -6.6242 -6.2022
-6.0293 -5.3792 -4.3566 -4.5534 -5.4288 -5.6817
-5.4766 -4.9203 -4.3125 -4.3989 -5.5934 -6.2527
-5.9686 -6.8881 -7.5374 -7.1199 -7.6164 -8.7300
-8.5194 -6.9111 -7.1806 -8.5250 -8.3797 -8.8431
-10.3815 -11.1595 -10.8744 -11.7084 -14.0836 -15.2597
-14.9076 -14.6096 -15.0933 -15.4712 -15.3664 -15.0096
-14.4496 -14.0349 -12.6703 -10.6344 -9.1162 -8.0073
-6.8284 -5.2578 -3.7718 -2.5856 -1.5787 -0.3263
1.0034 1.9423 2.8352 3.5607 4.0140 4.3745
4.4094 4.6310 5.4476 6.1648 6.6770 6.9216
6.5860 6.1290 5.6021 4.8278 4.3956 4.0719
3.2517 2.4020 1.8301 1.4632 1.0282 0.1602
-0.5635 -0.6592 -0.7355 -1.2642 -1.9428 -2.1047
-2.3806 -3.5254 -4.3695 -4.2417 -3.9797 -4.1332
-4.3907 -5.0298 -5.9089 -5.9714 -5.4473 -4.7613
-4.0523 -3.0895 -1.7948 -1.2918 -1.1125 -0.1470
0.9225 1.8457 3.0724 4.7211 6.2742 7.5699
9.2683 10.6035 11.1892 12.0748 13.1184 13.4522
13.5175 13.9543 14.2044 14.0748 13.9065 13.9856
13.9948 13.1699 11.7759 10.5446 9.7336 9.4881
9.6067 9.7345 9.6904 9.1644 8.5060 7.9864
7.2315 6.2200 4.8774 3.3271 2.2006 1.7013
1.4374 1.2783 1.1643 0.8489 0.4075 -0.1222
-0.4955 -0.4882 -0.4183 -0.7429 -1.6284 -2.6362
-3.3185 -3.9218 -4.6510 -4.8606 -4.5645 -4.2923
-3.9585 -3.4850 -2.8864 -2.4100 -2.4238 -2.9498
-3.2275 -3.0620 -3.3480 -3.6937 -3.3277 -2.4395
-1.5815 -0.9673 -0.0578 0.7707 1.1716 1.4521
1.5661 1.4953 1.0374 0.3302 -0.4762 -0.8827
-0.5535 -0.2436 -0.0385 0.5509 1.3187 1.5118
1.3803 1.9689 2.6944 2.3431 1.4934 0.9564
0.4304 -0.2767 -1.0224 -1.3921 -1.4261 -1.6726
-1.9677 -2.1802 -2.3963 -2.5866 -2.6887 -2.9250
-3.7011 -4.5213 -5.0556 -5.7977 -6.9480 -7.9577
-8.3678 -8.6602 -9.1173 -9.2552 -8.8855 -8.4754
-8.1361 -7.6662 -7.1411 -6.6299 -6.3384 -6.1655
-5.8308 -5.3195 -4.8515 -4.6078 -4.3696 -3.9871
-3.5393 -3.2110 -3.0666 -3.0409 -2.9811 -2.6446
-2.4073 -2.3926 -2.0781 -1.6680 -1.6652 -1.8868
-1.8694 -1.8280 -2.3862 -3.3324 -3.8464 -4.2814
-5.1448 -5.8400 -6.3485 -7.1789 -8.1361 -8.7890
-9.3067 -9.9017 -10.5426 -11.1541 -11.9651 -13.1523
-14.0019 -14.2383 -14.1316 -13.8033 -13.2415 -12.3541
-11.5688 -11.0327 -10.5389 -10.3237 -10.6106 -11.1688
-11.4695 -11.1890 -10.6631 -10.3835 -10.0929 -9.5863
-8.7669 -7.6856 -6.8782 -5.9292 -4.8883 -4.7917
-5.5568 -6.1177 -5.8998 -5.6782 -6.0478 -6.3513
-6.0763 -5.8695 -6.1950 -6.2722 -5.6230 -4.8837
-4.5674 -4.2363 -3.4428 -2.7917 -2.7457 -2.9324
-3.1660 -3.5191 -3.9200 -4.0947 -3.9540 -3.4933
-2.7044 -1.8216 -1.0878 -0.7117 -0.5627 -0.4064
-0.2970 -0.1839 0.0534 0.3936 0.3807 0.0423
0.1711 0.7918 1.6249 2.5269 3.4125 4.0856
4.2640 4.5932 5.4465 6.3946 7.0162 7.2488
7.5468 7.9035 8.2695 8.8185 9.4134 9.8429
9.7730 9.6507 9.9817 10.2824 10.3100 10.1748
9.9597 9.8282 9.8088 9.7252 9.8318 10.3293
10.8148 10.9794 10.6456 10.4295 10.6272 10.5417
10.0231 9.2295 8.6861 8.3118 7.6893 7.9403
9.0226 8.6143 6.9500 7.1504 9.1909 9.0309
6.3918 5.9715 7.6120 7.1495 5.4143 5.9458
7.3509 6.8902 6.2309 6.8902 8.2704 9.2286
8.8461 8.1463 8.2539 8.6456 8.4975 8.0341
8.1104 8.1288 7.4842 6.9647 7.2405 7.6341
7.4401 7.4263 7.5274 7.4244 7.3959 7.3858
7.4125 7.3591 7.5017 8.1316 8.3991 7.9835
8.0543 8.8598 9.2681 8.9711 8.9435 9.2350
8.9049 8.0249 7.7168 8.1646 7.9219 7.2653
7.4584 8.1269 8.4856 8.4019 8.6290 8.8534
8.5582 8.4414 8.1904 7.2019 5.9678 5.0713
4.0892 2.5039 1.1439 0.5765 0.2896 -0.2695
-0.8690 -1.2985 -1.8575 -2.2621 -2.4120 -1.7150
0.8855 5.1301 9.4152 11.5743 10.8598 8.2814
5.0841 1.8639 -1.6129 -5.3895 -8.3257 -8.3275
-4.4139 0.6896 1.8528 -2.5987 -8.2585 -9.7372
-6.0369 -0.8700 1.3452 -0.2686 -3.1146 -3.9707
-2.2980 -0.1601 0.5894 -0.4231 -1.6028 -1.7463
-1.8327 -2.2098 -1.9679 -1.2102 -0.7044 -0.4387
0.0385 1.0666 2.4901 3.6754 4.2510 4.1811
3.9770 3.9567 3.3728 2.1443 0.9940 0.2923
-0.1693 -0.8838 -1.8190 -2.8424 -3.6268 -4.1059
-4.8682 -6.0737 -7.5192 -9.3023 -11.4917 -13.0669
-12.8995 -11.4862 -10.6687 -11.3280 -12.7662 -14.1897
-14.9262 -14.6816 -13.3979 -11.7345 -10.7699 -10.5243
-10.3974 -9.7648 -8.5712 -7.4209 -7.3280 -8.4508
-9.5000 -9.7381 -9.3317 -9.0356 -8.9363 -8.4140
-8.2797 -8.9004 -9.6857 -10.4021 -10.8453 -11.3961
-11.9993 -11.8899 -10.8232 -9.4742 -8.7211 -8.6071
-8.8848 -9.1239 -9.0963 -8.7643 -8.0885 -7.6232
-7.4393 -7.2370 -6.7551 -5.8190 -5.0613 -4.7707
-4.5169 -4.2880 -4.0314 -3.2691 -2.0084 -0.9169
-0.6365 -1.0981 -1.4972 -1.1450 -0.0056 1.7645
3.6864 4.9185 5.4169 5.7011 6.0707 6.7227
7.7508 9.0767 10.2896 11.0363 11.5651 11.8584
11.4915 10.5876 9.8271 9.7076 9.5356 8.8321
8.3016 7.8289 6.9222 5.9512 5.2680 4.5498
3.6633 2.7907 1.7332 0.1166 -1.8383 -2.9510
-2.9685 -2.8075 -2.8149 -2.9501 -3.4595 -4.6678
-6.0912 -6.9805 -7.1726 -7.0825 -7.0467 -6.9832
-6.8149 -6.3680 -5.9331 -5.9717 -6.2264 -6.5069
-6.7524 -6.4609 -5.8292 -5.2811 -4.9188 -4.8361
-4.5611 -4.2439 -4.0351 -3.6195 -3.0034 -2.0259
-0.8461 -0.0323 0.1120 -0.1942 -0.7027 -1.3234
-1.6333 -1.1478 -0.0526 1.0067 1.8831 2.4054
1.9484 1.0334 0.8164 1.0546 0.9902 0.5801
-0.2245 -1.5579 -2.9161 -3.6048 -3.5303 -3.1211
-2.7184 -2.4011 -2.4048 -2.8894 -3.8503 -5.0458
-5.9763 -6.1253 -5.1993 -3.6784 -2.1951 -1.2213
-1.0797 -1.6425 -2.1069 -1.5211 -0.3092 0.8486
1.7865 2.3474 2.7456 3.4095 4.7750 6.3171
7.2716 7.7130 7.6054 6.6013 5.0583 4.0284
4.0311 4.7805 5.4114 5.3884 4.9130 4.4532
4.2592 3.9152 3.2881 2.6858 2.1994 1.7846
1.2771 0.5929 -0.1648 -0.9271 -1.6830 -2.1667
-2.1216 -1.5883 -0.9400 -0.6917 -0.8444 -1.1542
-1.4586 -1.6131 -1.6738 -1.4614 -0.6301 0.4145
1.4858 2.6674 3.5189 4.2812 5.1879 6.0955
6.9810 7.6826 8.3585 8.9580 8.9121 8.2500
7.5704 7.0316 6.6693 6.5378 6.6812 7.2366
7.9888 8.6610 8.8872 8.2371 7.1309 6.3410
5.8435 5.5704 5.5051 5.4049 5.3442 5.0601
4.5479 4.2076 3.6679 2.8678 2.1221 1.4563
1.2108 1.3910 1.4030 1.1345 0.7676 0.1460
-0.6320 -1.3354 -1.5046 -0.7938 -0.0104 0.4264
0.7933 0.8779 0.7271 0.7749 1.0287 1.4572
1.9179 1.9805 1.8931 1.6411 1.0287 0.6729
0.7069 0.8439 0.9956 1.0977 1.2650 1.4913
1.7313 2.1184 2.3078 2.3961 2.9625 3.7901
4.8255 6.2987 7.9722 9.0720 8.7667 7.0058
4.7584 3.3515 3.4674 4.7676 6.0118 6.6674
7.1364 7.1262 6.3060 5.0159 3.8508 3.0692
2.1818 0.7528 -1.1488 -2.9217 -3.7107 -3.4743
-2.7203 -1.9139 -1.4293 -1.4568 -2.3323 -3.6987
-4.5934 -4.9024 -4.8803 -4.5594 -4.2017 -4.1594
-4.2385 -4.0868 -3.6674 -3.0090 -2.2624 -1.4660
-0.6872 0.0052 0.6158 1.0186 1.2448 1.1280
0.7565 0.5257 0.3629 0.3289 0.7252 1.4811
2.0678 2.1450 1.9023 1.7193 1.7469 1.8029
1.8774 1.7266 1.0250 -0.1355 -1.5654 -2.6569
-3.0229 -3.2702 -3.6923 -4.0840 -4.7461 -5.4431
-5.9001 -6.2468 -6.5126 -7.0367 -7.4284 -7.4385
-7.7061 -8.1687 -8.2818 -8.1025 -7.7742 -7.1581
-6.3388 -5.3880 -4.7250 -4.6284 -4.4638 -4.0537
-3.3659 -2.3148 -1.4293 -0.7350 -0.0959 0.3013
0.7068 1.2613 1.6797 1.8967 1.8848 1.6981
1.3854 0.9643 0.8916 1.0930 1.2723 1.7404
2.3215 2.7032 3.0875 3.5234 3.9510 4.3547
4.7464 5.0618 4.9671 4.5303 4.2581 4.0742
3.8314 3.7744 3.6953 3.3615 2.6572 1.5224
0.1928 -1.0882 -1.8992 -2.1401 -2.0785 -1.7521
-1.3447 -1.2059 -1.1443 -0.7820 -0.6036 -0.9043
-1.1286 -1.1875 -1.0845 -0.9585 -0.8463 -0.3939
0.2112 0.8107 1.2107 1.5647 1.9142 1.8939
1.7312 1.5454 1.3008 0.7859 -0.0040 -1.0027
-2.1420 -2.8712 -3.1783 -3.2574 -3.3144 -3.4946
-3.4588 -3.2795 -3.1599 -3.1094 -3.0450 -2.8694
-2.6910 -2.2625 -1.6933 -1.2335 -0.7415 -0.4546
-0.1411 0.2773 0.5054 0.7803 0.9836 1.0755
1.2309 1.3891 1.6530 2.0843 2.4659 2.6930
2.7978 2.5928 2.2010 1.7505 1.1426 0.5615
-0.0988 -0.6652 -0.8059 -1.0091 -1.2730 -1.4156
-1.7742 -2.1521 -2.4905 -2.8648 -3.0827 -3.2142
-3.0275 -2.4786 -1.9940 -1.6059 -1.2887 -1.2022
-1.0027 -0.3369 0.4815 1.0507 0.9909 0.5605
0.0447 -0.7075 -0.9852 -0.6514 -0.1310 0.5697
1.1941 1.6631 1.6759 0.9854 0.1256 -0.3342
-0.2818 0.2019 0.7362 0.9348 0.9201 0.9081
1.2042 1.8709 2.5605 3.1573 3.7275 4.2691
5.0286 6.3905 7.9739 9.3045 10.4586 11.4314
12.3749 13.2236 13.7138 13.7239 13.1584 12.4512
12.0310 12.0108 12.2590 12.2029 11.5813 10.8429
10.3041 9.7652 9.0011 8.3629 8.0116 7.2006
5.7918 4.2488 2.7573 1.1867 -0.5356 -1.9701
-3.0579 -4.0317 -4.8529 -5.4782 -6.0226 -6.6488
-7.3835 -8.1559 -8.8511 -9.4663 -9.8801 -10.0989
-10.4428 -11.0323 -11.4360 -11.2943 -11.2962 -11.4185
-10.8079 -9.9242 -9.7725 -10.1155 -9.7826 -9.0010
-8.3656 -7.4083 -6.0060 -4.6920 -3.8377 -3.0690
-2.4179 -2.0244 -1.6409 -1.2805 -1.0110 -0.9071
-0.9402 -0.9660 -0.7407 -0.7453 -0.8768 -0.7683
-0.8777 -0.8740 -0.7784 -0.6993 -0.7765 -1.3844
-2.1504 -3.0138 -4.1035 -5.2989 -6.4327 -7.5058
-8.5422 -9.4746 -10.2792 -10.8144 -11.1472 -11.4691
-11.9583 -12.4944 -12.7997 -12.9321 -13.0066 -13.0084
-12.8227 -12.6526 -12.5045 -12.1597 -11.6300 -11.0084
-10.5771 -10.2203 -9.5886 -8.6967 -7.7495 -6.7426
-5.5196 -4.2902 -3.2621 -2.1642 -0.7444 0.7140
1.7706 2.5090 3.1784 3.6290 3.6262 3.3007
3.1370 3.1048 2.9485 2.8648 2.8648 2.8612
2.6809 2.2920 1.8028 0.9559 -0.1559 -1.3072
-2.6276 -3.9840 -5.1509 -6.2856 -7.3863 -7.9987
-8.0714 -8.0346 -8.0934 -8.0622 -7.8700 -7.9454
-8.3086 -8.3914 -7.9518 -7.2346 -6.5679 -5.6723
-4.3757 -3.0736 -1.8938 -0.9476 -0.0750 0.6496
0.9595 1.1370 1.0625 0.8841 0.6938 0.4510
0.3977 0.5016 0.6892 0.7480 1.0101 1.5388
1.7816 1.7255 1.5122 1.2712 1.1177 0.9880
0.9862 1.2216 1.6556 2.3903 3.1554 3.6722
4.2975 5.2041 5.9674 6.4005 7.0534 7.8809
8.4290 8.7095 8.8446 8.8492 8.5881 8.3003
8.0832 7.6538 6.9954 6.2855 5.5168 4.6377
3.7954 3.0726 2.3673 1.5737 0.8740 0.3443
-0.0428 -0.2185 -0.3656 -0.5716 -0.6948 -0.5228
-0.2010 -0.1182 -0.0649 0.0353 -0.0070 0.0059
0.1769 0.5282 1.0845 1.6041 2.1503 2.7250
3.0643 3.5066 4.1926 4.7848 5.2087 5.7715
6.5513 7.1333 7.5977 8.1687 8.6754 8.8731
8.9678 9.1048 8.9991 9.0055 9.1481 9.1471
9.3025 9.5490 9.6566 9.5232 9.4120 9.5021
9.2943 8.7830 8.3076 7.8359 7.3402 6.9476
6.6248 6.2699 6.0151 5.7889 5.4496 5.0974
4.7535 4.5393 4.4482 4.1659 3.5912 2.7562
1.9443 1.3126 0.5475 -0.2167 -0.7399 -1.2374
-1.6070 -1.9270 -2.5450 -2.8778 -2.7215 -2.5992
-2.4751 -2.1753 -1.7873 -1.6162 -1.6429 -1.6475
-1.7496 -2.0843 -2.5422 -2.9882 -3.5353 -4.1680
-4.9422 -5.7928 -6.4411 -7.0085 -7.5115 -8.0724
-8.6324 -8.7915 -8.7427 -8.6931 -8.5598 -8.2683
-7.9106 -7.7322 -7.6825 -7.2687 -6.4476 -5.7027
-4.9809 -4.1294 -3.2365 -2.4264 -1.6889 -0.8595
0.0206 0.8822 1.7557 2.6523 3.4091 3.9296
4.2395 4.3222 4.3958 4.5558 4.7434 4.9227
5.0551 5.2169 5.2565 5.1167 4.8546 4.6303
4.5447 4.5824 4.6247 4.5116 4.6119 4.7654
4.7378 4.6358 4.4473 4.2542 3.7466 3.1323
2.7001 2.3102 1.9525 1.6509 1.5783 1.7098
2.0417 2.4895 2.7516 2.8316 2.8711 2.7755
2.5070 2.1603 1.8734 1.7658 1.4523 0.8923
0.4389 0.2008 -0.0742 -0.6976 -1.0802 -1.0848
-1.1675 -1.3340 -1.4921 -1.3910 -1.1170 -0.8540
-0.5395 -0.0153 0.7074 1.1608 1.2674 1.3290
1.4329 1.5102 1.5534 1.6867 1.8284 1.9966
2.3387 2.5732 2.5658 2.5907 2.7267 2.8150
2.6771 2.4398 2.2035 1.8688 1.5451 1.2490
1.0247 0.7635 0.3929 0.2081 0.2651 0.3276
0.1308 -0.2480 -0.6876 -1.1069 -1.5345 -1.7929
-1.7423 -1.8168 -1.9602 -1.6632 -0.8963 -0.3961
-0.1202 0.2679 0.3534 0.1345 0.0527 0.3773
0.5051 0.5290 0.8839 1.1534 1.2279 1.0605
0.8849 0.7341 0.2485 -0.5055 -1.0462 -1.2319
-1.5418 -1.8628 -1.9648 -2.1074 -2.5239 -3.1621
-3.5630 -3.4333 -3.1446 -3.2586 -3.4094 -3.1327
-2.9773 -2.8292 -2.2214 -1.9961 -2.1579 -1.5354
-0.6361 -0.5028 -0.5469 0.2393 1.6324 2.6237
2.9106 2.9851 3.2941 3.7686 4.4196 4.7644
3.9911 3.5846 4.5299 4.8518 4.3341 4.6973
5.2260 4.4674 3.5276 3.6564 3.6113 2.8058
2.7690 2.8343 1.8357 1.5074 1.7005 0.7828
-0.1883 -0.5809 -1.1097 -1.2090 -0.5359 -0.0292
0.2154 0.4572 -0.0393 -1.0665 -1.0067 -0.3179
-0.9966 -2.1764 -2.6380 -3.2357 -3.8426 -4.4752
-5.5511 -5.5539 -4.7695 -5.3470 -5.9999 -5.3157
-5.1888 -6.0845 -6.3097 -6.1433 -6.7695 -6.7015
-5.5824 -5.6936 -6.3189 -6.3576 -6.6849 -6.9341
-6.4615 -6.1194 -6.7824 -6.8229 -6.0035 -6.6132
-7.4224 -6.3870 -5.3672 -5.7222 -6.1222 -6.1838
-6.2592 -5.9309 -5.5052 -5.6026 -5.6688 -4.9727
-4.4026 -4.7272 -5.2247 -5.9649 -6.6638 -6.6334
-6.7088 -6.9341 -6.8587 -6.9838 -7.3415 -7.5843
-7.6615 -7.8169 -8.4974 -9.1576 -8.7705 -8.2969
-8.6932 -8.6326 -8.2528 -8.5590 -8.5231 -7.8427
-7.4923 -7.5944 -7.3636 -6.9930 -7.0546 -7.0197
-6.3227 -5.5557 -5.1392 -4.0229 -2.5047 -1.7424
-1.5143 -1.1649 -0.7465 -0.5479 -0.2122 0.0967
0.0884 0.3551 1.2875 1.7344 1.4098 1.8356
2.6761 3.0209 3.3924 4.1786 4.7276 3.7942
2.7616 3.2940 3.7538 3.8089 4.1317 4.5593
4.9179 5.1607 5.6434 6.0480 6.2513 6.4480
6.7883 7.3483 8.0646 8.4287 8.1639 8.2274
8.6660 8.5979 8.2927 8.2651 8.4425 8.6127
8.7202 8.9731 8.9060 8.6844 8.5860 8.4563
8.1391 7.3832 6.9115 6.5694 6.0600 5.7676
5.6968 5.6802 5.6636 5.7427 6.1253 6.6917
6.8765 6.8738 6.9262 6.8912 6.8774 6.8416
6.8315 7.2094 7.5340 7.6186 7.7666 7.5377
7.0071 6.8747 7.0384 6.8076 6.2108 5.9524
6.0618 5.6223 5.0540 4.9501 4.5519 3.8475
3.2314 2.4562 1.5790 1.1606 0.8829 0.2677
-0.3374 -0.3401 -0.0238 -0.3079 -0.7116 -0.4082
-0.3843 -0.9810 -1.3562 -1.4804 -1.3452 -1.1061
-0.6546 -0.1866 -0.0404 0.2613 0.8774 1.3445
1.0061 0.6732 0.8286 0.5399 -0.1654 -0.6555
-0.9801 -1.8399 -2.6169 -2.8505 -3.3278 -3.4445
-3.1071 -2.8827 -2.7861 -2.7107 -2.3659 -2.1351
-2.1802 -2.0008 -1.4500 -1.1126 -0.9829 -0.5011
0.1656 0.8121 1.0907 0.9812 1.2314 1.5459
1.6157 1.9284 2.3477 2.9151 3.6581 4.2640
4.6125 4.8470 5.0926 4.9077 4.5289 4.6990
5.1459 5.1634 4.7532 4.5859 4.5335 3.8015
2.5242 1.6737 1.4778 1.3114 1.2433 1.5183
1.7399 1.3822 0.8405 0.5693 0.3210 0.6290
1.2930 1.4033 1.3132 1.3444 1.3307 1.0143
0.4580 0.3504 0.6658 0.7219 0.4037 0.3835
0.8166 1.0713 1.0281 1.0125 1.1357 0.9923
0.6152 0.3863 0.1656 -0.3816 -1.0317 -1.1393
-1.5558 -2.2528 -2.1361 -2.3227 -2.8956 -2.8864
-2.5296 -2.2758 -2.4634 -2.4524 -2.2032 -2.3007
-2.2381 -2.0000 -2.0303 -2.1407 -2.0910 -2.0625
-2.2216 -2.3310 -2.2078 -2.0938 -2.1775 -2.0662
-1.3710 -0.7411 -0.8680 -1.0151 -0.6069 0.0902
0.4497 0.3265 0.7246 1.2102 0.7348 0.2115
0.4331 0.6520 0.3393 0.0515 0.1324 0.0846
-0.3126 -0.4542 -0.5002 -1.1825 -2.0598 -2.4184
-2.5435 -3.0290 -3.4244 -3.3389 -3.6000 -4.3154
-4.6483 -4.5426 -4.6244 -4.9260 -5.0695 -4.9600
-4.4883 -4.1159 -4.1085 -3.8207 -3.2662 -2.8432
-2.4009 -1.7683 -1.3379 -1.2092 -1.1513 -1.2892
-1.4023 -1.1890 -0.9922 -1.2331 -1.3260 -1.0382
-0.9848 -1.0998 -0.9885 -0.7172 -0.7605 -0.8984
-0.8166 -0.8929 -1.2175 -1.7251 -2.1701 -2.5150
-3.1182 -3.5228 -3.4621 -3.4869 -3.4860 -3.1476
-2.8147 -2.6557 -2.4212 -2.1674 -1.9182 -1.3370
-0.4616 0.1793 0.3071 0.4230 0.8092 0.8211
0.3752 0.4782 0.9765 0.7926 0.3467 0.1315
-0.1683 -1.0741 -2.1223 -2.2088 -2.3706 -2.6630
-2.2722 -2.0065 -2.0902 -2.5453 -2.7403 -2.8304
-3.4778 -3.7316 -3.8575 -4.2493 -4.6566 -4.9803
-5.0861 -5.3196 -5.3601 -5.1633 -4.9628 -4.7918
-4.8599 -4.8488 -4.7449 -4.6171 -4.5307 -4.3992
-3.7702 -3.1035 -2.7449 -2.3237 -1.9440 -1.6276
-1.2837 -0.9711 -0.5812 -0.4019 -0.3513 -0.2272
-0.0598 0.1857 0.2823 0.3034 0.0763 -0.3697
-0.8957 -1.4116 -1.8511 -2.5858 -3.1697 -3.5394
-3.9137 -4.1941 -4.5702 -5.0824 -5.9036 -6.6916
-7.3362 -7.9983 -8.5804 -9.1864 -9.4852 -9.4374
-9.4245 -9.6471 -9.7225 -9.1799 -8.0838 -6.3771
-4.3532 -2.3274 -0.5288 0.5195 0.5774 0.0376
-0.5224 -0.7946 -0.1895 1.2413 3.0593 5.0988
6.7412 7.5540 7.9439 8.5260 9.1338 9.4814
9.4198 9.2598 9.5660 10.1683 10.7945 10.9472
10.2925 9.3950 8.7173 8.4368 8.3559 7.7830
6.4267 4.4827 3.3416 2.5324 1.0188 0.6528
0.5949 0.2510 0.2868 -0.0930 -0.4792 -1.4916
-2.6116 -3.0898 -3.7482 -4.0746 -4.0433 -3.7831
-3.5321 -3.6130 -3.5496 -3.2470 -3.0456 -3.1100
-3.1266 -3.0300 -2.8893 -2.6567 -2.4856 -2.1758
-1.7776 -1.6038 -1.3417 -1.2553 -1.6461 -2.0332
-2.3624 -2.6833 -2.9969 -3.1339 -3.0374 -3.1220
-3.2139 -3.0613 -2.8112 -2.4912 -2.3661 -2.5886
-2.8985 -3.0834 -3.1257 -3.1532 -2.9620 -2.7303
-2.7597 -2.7817 -2.6337 -2.5739 -2.9464 -3.0714
-3.0420 -3.6995 -4.2834 -4.4038 -4.8553 -5.3988
-5.4402 -5.4301 -5.6958 -6.0269 -6.2862 -6.4039
-6.3404 -6.1538 -5.6434 -5.0999 -4.7726 -4.2871
-3.7326 -3.0687 -2.4719 -2.0424 -1.5744 -1.1477
-0.5988 0.0606 0.7199 1.2992 1.9208 2.5792
3.0537 3.5797 4.0818 4.4726 4.9664 5.4013
5.6937 5.8464 5.8510 5.9512 6.1544 6.2675
6.4248 6.8349 7.3020 7.5733 7.8868 8.5397
9.2248 9.4344 9.3397 9.0602 8.2933 7.5935
7.6551 7.9025 8.0625 8.6436 9.5209 10.2685
10.7356 11.0151 11.1595 11.1503 11.0234 10.7365
10.2464 9.8179 9.6156 9.3627 9.0583 8.8579
8.7199 8.6151 8.4680 8.0238 7.1769 6.2684
5.6505 5.1852 4.3760 3.2017 2.2022 1.6146
1.1097 0.4182 -0.0811 -0.3689 -0.8820 -1.6232
-2.3754 -2.8066 -3.1763 -3.5910 -3.6894 -3.7510
-3.8641 -3.7933 -3.6968 -3.8025 -3.8255 -3.4356
-3.0384 -3.0926 -3.0779 -2.5979 -2.2448 -2.2273
-2.0995 -1.8080 -1.7961 -1.8954 -1.7207 -1.4807
-1.4494 -1.6931 -1.9588 -2.2062 -2.4977 -2.5749
-2.5501 -2.7221 -2.6494 -2.0756 -1.5285 -1.1055
-0.5078 0.1074 0.2030 0.0302 0.2325 0.5929
0.7915 0.9552 1.4122 1.8876 2.0476 2.3796
3.1198 3.8683 4.2371 4.5727 4.8228 4.4936
3.9759 3.4739 2.9929 2.6830 2.5286 2.3658
1.5437 -0.0425 -1.1616 -1.1662 -1.1340 -1.8310
-2.7598 -3.6802 -4.6706 -5.1285 -5.1147 -5.0761
-5.0228 -5.2977 -5.7888 -6.3258 -6.0361 -5.2757
-5.3584 -5.4881 -5.4108 -4.7699 -3.8789 -3.8255
-4.1005 -4.3552 -4.5281 -4.6899 -4.5051 -3.9984
-3.7299 -3.5681 -3.5387 -3.6591 -3.8072 -3.7566
-3.8559 -4.3929 -4.5511 -4.2191 -4.0067 -3.8614
-3.4182 -2.7276 -2.2559 -2.3469 -2.2881 -1.7327
-1.6104 -1.9166 -1.8237 -0.9584 0.1579 0.9239
1.5078 2.1009 2.6885 3.0628 3.3947 4.0210
4.6242 4.9350 4.9065 4.5626 4.2389 4.1184
4.1745 4.3842 4.5212 4.5230 4.4485 4.3777
4.4016 4.1580 3.7405 3.4931 3.2265 3.0113
2.9644 2.9708 2.7400 2.6324 3.0481 3.3589
3.3138 3.0131 2.7556 2.4246 1.8232 1.5915
1.2669 0.4632 -0.0067 -0.0582 -0.0784 -0.0242
0.1018 -0.0766 -0.6706 -1.2435 -1.4145 -1.5644
-2.0619 -2.6109 -3.2205 -3.8504 -4.1263 -4.1796
-4.2311 -4.2587 -4.1465 -3.7851 -3.4992 -3.3300
-3.2095 -3.4615 -3.8780 -4.2468 -4.5943 -4.7415
-4.6293 -4.4914 -4.4996 -4.4187 -4.1594 -3.7704
-3.3888 -2.9953 -2.4693 -2.0270 -1.6555 -1.2564
-0.7920 -0.3874 -0.0086 0.5873 1.2218 1.6135
1.9243 2.4761 2.8328 2.7124 2.6250 2.6876
2.7216 2.6489 2.6590 2.8871 2.7565 2.3961
2.5285 3.1059 3.7092 3.9427 3.9648 3.8462
3.5602 3.4296 3.2715 2.8954 2.6820 2.8301
3.0756 3.1455 3.2080 3.2770 2.8825 2.3022
2.0880 2.1625 2.0209 1.7432 1.5169 0.8917
0.1965 -0.2633 -0.4509 -0.9511 -1.7833 -2.2495
-2.6330 -2.7921 -3.0293 -3.2261 -3.3015 -3.6261
-3.8045 -3.8790 -3.9599 -4.3240 -4.6643 -4.7572
-4.6882 -4.0703 -3.2050 -2.5079 -1.9038 -1.0403
-0.0058 0.9864 2.1358 3.4526 4.6296 5.4075
6.0889 7.0149 7.8140 8.2673 8.7198 9.1060
9.3129 9.5078 9.7570 9.8674 9.7543 9.8140
9.8343 9.4407 8.7713 8.1009 7.4407 6.7482
6.2747 5.7064 5.0563 4.6434 4.3078 3.9721
3.5482 3.2356 3.1399 2.9100 2.4052 2.1017
2.2093 2.3491 2.4530 2.7500 3.3477 3.8461
3.9951 4.0907 4.4742 5.0277 5.2273 5.1243
5.0296 4.9919 4.8760 4.7243 4.8089 4.9753
5.0250 4.8493 4.6452 4.7215 4.7004 4.3298
3.7376 3.2962 3.0838 2.7868 2.3877 1.8415
1.2153 0.7527 0.6424 0.5734 0.1431 -0.4960
-0.9788 -1.2142 -1.6179 -2.2027 -2.5530 -2.7342
-3.1655 -3.5554 -3.6243 -3.8754 -4.4142 -4.7397
-4.5089 -4.3912 -4.7186 -4.9991 -5.3301 -5.9002
-6.3885 -6.3057 -6.0437 -6.1954 -6.5577 -6.6754
-6.6460 -6.8786 -6.9733 -6.7609 -6.3536 -5.9995
-5.8754 -5.7742 -5.8083 -5.5867 -5.1195 -4.6083
-3.8947 -3.2777 -2.9935 -2.8777 -2.4381 -1.7641
-1.3862 -1.2243 -0.7995 -0.3057 -0.2422 -0.3507
-0.3020 -0.2514 -0.1319 0.4704 1.3523 1.8176
1.6566 1.5711 2.0171 2.1799 1.8185 1.4028
0.9936 0.6230 -0.0832 -0.9990 -1.5131 -1.4588
-1.1664 -1.1931 -1.1820 -0.8988 -0.6781 -0.5641
-0.5163 -0.6138 -0.7351 -0.7646 -1.1361 -1.7246
-1.7476 -1.0423 -0.2202 0.2267 0.5090 0.9743
1.1729 0.5973 -0.3701 -1.1526 -1.5664 -1.7843
-1.6234 -0.7259 0.8207 2.7536 4.6424 5.8654
6.0235 5.5371 5.1978 5.0599 4.8125 4.4916
4.0364 3.4856 3.0902 2.8833 2.9642 3.4856
4.4189 5.2796 5.5840 5.3992 4.9394 4.2323
3.2437 2.3076 1.5885 1.1462 1.1159 0.9844
0.2074 -1.1848 -2.4556 -3.1223 -3.6934 -4.3757
-4.8787 -5.1692 -5.6483 -6.5559 -7.5104 -8.3058
-9.0654 -9.7164 -10.1698 -10.2304 -10.2194 -10.8042
-12.0227 -13.6006 -14.5864 -13.7385 -10.5560 -6.1633
-2.8695 -2.0354 -3.5472 -6.4502 -9.7201 -12.7353
-15.8590 -19.2329 -20.9855 -19.5887 -15.5289 -10.7500
-6.9421 -4.6056 -4.5945 -6.6212 -8.6994 -9.7045
-9.5463 -8.6056 -7.7486 -7.4645 -7.4139 -6.8925
-5.6658 -4.4382 -3.4451 -2.3297 -1.6299 -1.6492
-1.8874 -2.2368 -2.3941 -1.8479 -0.6350 0.7977
1.5177 1.4331 1.2115 0.5016 -0.7260 -1.9113
-2.4272 -1.9922 -1.6768 -2.0410 -2.6102 -3.2658
-3.8451 -3.6998 -2.9201 -2.3582 -2.6129 -3.9683
-5.6465 -6.5431 -6.7767 -6.6075 -5.9380 -4.7923
-3.7835 -3.7826 -4.1127 -3.8672 -3.2336 -2.5596
-1.9095 -1.6327 -2.2525 -2.9670 -2.8336 -1.5702
0.6450 3.0883 5.0515 5.7715 5.9637 6.6993
7.4433 8.0833 8.9578 9.7210 9.8847 9.8056
10.3040 10.8548 10.8024 10.3527 10.1219 10.7628
11.5270 11.8212 11.7900 11.6088 11.5978 11.4773
11.3339 11.2208 10.6479 9.6915 8.8759 8.4667
8.2331 7.9904 7.8230 7.5058 6.7002 5.8257
5.3126 4.9752 4.5834 4.0758 3.5287 2.9034
2.2340 1.8055 1.6547 1.6611 1.6068 1.3622
1.3310 1.5508 1.4036 0.8179 0.1208 -0.7049
-1.5941 -2.2093 -2.2396 -1.6897 -0.8447 0.1346
0.9861 1.2767 1.2721 1.3356 1.2326 0.9199
0.6266 0.6533 0.8629 1.1406 1.6841 2.1365
2.1898 2.0832 2.3590 3.0119 3.5701 3.8009
3.7264 3.5581 3.3540 3.3889 3.6390 3.9149
4.0933 3.9885 3.7494 3.3595 2.9153 2.2229
1.5259 1.0698 0.4997 0.0335 -0.1688 -0.1026
-0.2893 -0.6047 -0.7555 -1.0774 -1.3118 -1.3118
-1.0222 -0.8971 -1.1417 -1.1905 -1.0525 -1.0038
-0.9284 -0.5946 -0.0769 0.3470 0.6790 1.0836
1.3328 1.5286 1.7926 2.1576 2.5760 2.7544
3.0376 3.2500 3.1728 3.1314 3.4266 3.9397
4.0822 4.1475 4.4068 4.5282 4.2404 3.7107
3.3006 3.0680 3.1296 3.3999 3.8064 4.2818
4.7231 5.0717 5.0202 4.8271 4.9043 4.9346
4.8225 4.7792 4.8142 4.8868 4.8004 4.6211
4.4666 4.4188 4.7985 5.2041 5.1038 4.6873
4.2247 3.6316 2.9420 2.4187 1.9810 1.6564
1.4091 1.1433 0.7433 0.0849 -0.4034 -0.9266
-1.4158 -1.6549 -1.9510 -2.0797 -2.1588 -2.2278
-2.4034 -2.5137 -2.7648 -3.0793 -2.9285 -3.0471
-3.0554 -2.9570 -2.8291 -2.4356 -2.1671 -1.6751
-1.4167 -1.3413 -1.2328 -1.5114 -1.8130 -2.0163
-2.1542 -2.3593 -2.7666 -3.0315 -3.1850 -3.5538
-4.1000 -4.5101 -4.6039 -4.6223 -4.7492 -4.7179
-4.5285 -4.3142 -4.1257 -4.0191 -3.9243 -3.8342
-3.6614 -3.5924 -3.5243 -3.1685 -2.8365 -2.7050
-2.5689 -2.3758 -2.2103 -2.0117 -1.8756 -1.8462
-1.8526 -1.7441 -1.5308 -1.4011 -1.0848 -0.7556
-0.8135 -0.9606 -0.7188 -0.2121 0.2219 0.7828
1.2067 1.3070 1.3299 1.3529 1.3336 1.0265
0.7387 0.4619 -0.0448 -0.5073 -0.9257 -1.4002
-2.0393 -2.7510 -3.0536 -3.1713 -3.4628 -3.5566
-3.4802 -3.6926 -4.3225 -4.8467 -5.1584 -5.5924
-6.0072 -6.1157 -5.8361 -5.6743 -5.3212 -4.5046
-3.8223 -3.2853 -2.9469 -2.6628 -2.1901 -1.7092
-1.2108 -0.5478 0.1851 0.8269 1.3915 1.9442
2.4490 2.7736 2.8104 2.7856 2.8435 2.8573
2.8683 2.9869 3.0283 2.8472 2.7828 2.8049
2.7515 2.6817 2.4821 1.9010 1.0357 0.2127
-0.6131 -1.1667 -1.3818 -1.5308 -1.5979 -1.6108
-1.5731 -1.5694 -1.8260 -2.2150 -2.4614 -2.6398
-2.6812 -2.4807 -2.0191 -1.5768 -1.4499 -1.2467
-1.0370 -1.0904 -1.1189 -0.9966 -0.9258 -0.9110
-0.8467 -0.8044 -0.7225 -0.6573 -0.6821 -0.7373
-0.8209 -1.0177 -1.2862 -1.4214 -1.6504 -1.9832
-2.1736 -2.2196 -2.0458 -1.9934 -1.8637 -1.5345
-1.7856 -1.9934 -1.9704 -2.3879 -2.8090 -3.0637
-3.2302 -3.3534 -3.2550 -3.0132 -3.0141 -2.9718
-2.7787 -2.5010 -2.3171 -2.2223 -1.7433 -1.0444
-0.5000 -0.0026 0.5804 0.9970 0.8342 0.4857
0.3524 0.2292 0.2650 0.4397 0.6963 0.9069
0.9620 1.1901 1.2784 1.2030 1.3988 1.6866
1.8071 1.8558 2.1758 2.5124 2.6880 2.9363
3.0439 2.9850 2.8637 2.7965 2.7552 2.4260
2.1234 2.0333 1.9680 1.9009 1.8172 2.0591
2.3837 2.5400 2.8204 3.1506 3.4687 3.5239
3.3942 3.1864 2.8802 2.6007 1.8650 1.1303
0.9988 0.8756 0.4774 0.2043 0.5703 0.7919
0.4820 0.7478 1.2471 1.2406 1.0981 1.1193
1.0098 0.5611 0.4921 0.6871 0.5289 0.6282
0.9372 0.8986 0.7220 0.7597 1.2020 1.5937
1.7712 2.2080 2.6669 2.9795 3.4135 4.0204
4.5611 4.9124 5.3060 5.6113 5.6057 5.3602
5.0816 4.9087 4.8214 4.6788 4.4094 4.4351
4.9464 5.1588 4.8655 4.5813 4.0048 3.2296
2.9611 2.8857 2.2080 1.3399 1.4310 2.1344
1.9661 1.1946 1.1321 1.4117 1.1064 0.1914
-0.5562 -0.6923 -1.1070 -2.0707 -2.3180 -1.5521
-1.0840 -1.3774 -1.7341 -1.8371 -2.0882 -2.6610
-2.8385 -2.7953 -3.3102 -3.7507 -3.7847 -4.2537
-4.8919 -5.0887 -5.5696 -6.3696 -6.6105 -6.4165
-6.5701 -7.1393 -7.6147 -7.9117 -8.2188 -8.3770
-8.3503 -8.3843 -8.4882 -8.6179 -8.7614 -8.9912
-9.3361 -9.8391 -9.7692 -9.1954 -9.3719 -9.5696
-9.2809 -9.2708 -9.5025 -9.0262 -7.9788 -7.5935
-7.4105 -6.9719 -6.8285 -6.8919 -6.6841 -6.3880
-6.6326 -6.9820 -6.7577 -6.5664 -6.8827 -6.6850
-5.6680 -5.1337 -5.1337 -4.7043 -3.8464 -3.5135
-3.8712 -3.8951 -4.0349 -4.7659 -5.2800 -5.5108
-5.9310 -6.3135 -6.2151 -6.0938 -5.7977 -5.1788
-4.9305 -5.1402 -5.4427 -5.4611 -5.5963 -5.9089
-5.8731 -6.0864 -6.6335 -6.6096 -6.3844 -6.3972
-5.6662 -4.2381 -3.5236 -3.4832 -2.8983 -1.9917
-1.9972 -2.3172 -1.3719 -0.3806 -0.5562 -0.1029
1.3537 2.1831 2.4433 3.1992 4.0314 4.5592
5.1992 5.5670 5.5229 5.4558 5.6912 5.8135
5.5514 5.8935 6.2880 5.8677 5.6231 6.1390
6.4617 5.9762 5.7187 5.6323 5.0364 4.5601
4.5334 4.4875 4.3072 4.5776 4.8985 4.5592
4.3670 4.8672 4.9233 4.5914 5.0539 5.2553
4.6842 4.7357 5.1909 4.9399 4.7293 5.4769
5.9275 5.5854 5.9486 7.0135 7.2810 7.0604
7.6994 8.6319 8.8360 8.7486 8.7965 8.5666
8.0369 7.7656 7.7298 7.7298 7.9974 8.3302
8.3808 8.4305 8.7744 8.9031 8.4921 8.0948
7.6424 6.7551 5.7380 4.8737 4.0801 3.4603
3.4263 3.6396 3.4143 3.1688 3.1909 2.6180
1.4051 0.5977 0.2695 -0.2464 -0.8910 -1.3057
-1.6083 -1.8372 -1.8345 -1.8538 -2.1618 -2.4984
-2.6520 -2.9618 -3.4851 -3.6598 -3.3600 -3.2405
-3.4465 -3.2037 -2.4110 -2.0202 -2.0570 -1.6018
-1.2543 -1.8372 -2.3099 -1.9789 -1.7894 -2.1766
-2.0156 -1.2478 -0.9637 -0.7384 0.0294 0.7347
0.7991 0.4616 0.4469 0.3982 0.0294 -0.0717
-0.3117 -0.8184 -1.1007 -1.1025 -1.0805 -1.2552
-1.4327 -1.7389 -2.2290 -2.5416 -2.5490 -2.6281
-2.9334 -2.9977 -2.8911 -3.0768 -3.3435 -3.3177
-3.4759 -3.8906 -3.8952 -3.5476 -3.3251 -3.1669
-2.8359 -2.7816 -3.0713 -2.7743 -2.0166 -1.8796
-1.8805 -1.1908 -0.7320 -0.8938 -0.6180 -0.1628
-0.4037 -0.6373 -0.1821 0.0754 -0.4092 -0.4386
0.0993 0.1526 0.0855 0.4873 0.5177 -0.3072
-0.8644 -0.7347 -0.4929 -0.4993 -0.6612 -0.5416
-0.3329 -0.4901 -0.6253 -0.3964 -0.0423 0.0689
0.0027 0.2381 0.5765 0.9554 1.6129 2.4055
3.1080 3.5467 3.8271 4.2097 4.6887 5.1081
5.7619 6.4295 6.7136 6.8819 7.2377 7.6203
7.5338 7.1936 6.8773 6.7209 6.6915 6.4552
6.2759 6.3274 6.5076 6.7274 6.9711 7.2000
6.9242 5.9494 4.8083 4.1434 4.0395 3.9531
3.6726 3.2460 2.8735 2.9416 3.1365 3.1650
3.2588 3.5393 3.7958 3.6156 2.9857 2.3761
1.8547 1.1365 0.8202 1.3314 1.9246 2.2777
2.6298 3.0584 3.3351 3.3094 3.3186 3.2643
2.9590 2.8423 2.9848 2.8763 2.3825 2.0128
2.2133 2.7273 2.9452 2.9278 3.1006 3.2882
2.9774 2.3291 2.1342 2.2804 1.9540 1.3903
1.0850 0.7346 0.1590 -0.3826 -0.6916 -0.8847
-1.1017 -1.2304 -1.2433 -1.5192 -2.0203 -2.2787
-2.4470 -3.0061 -3.4925 -3.2507 -3.0420 -3.3500
-3.5119 -3.2167 -2.8489 -2.4838 -1.8199 -1.1716
-1.0870 -1.3868 -1.4898 -1.4888 -1.5633 -1.3509
-1.0245 -0.9941 -0.8360 -0.0865 1.0307 2.0974
2.9480 3.2845 2.9857 2.6160 2.3512 2.1268
1.7627 1.2698 1.0748 0.3116 -1.1238 -1.4374
-0.3854 0.5010 0.5222 0.6270 0.8937 0.8192
1.0381 0.9838 -0.0369 -0.9344 -0.8167 -0.3532
0.2279 1.5043 2.5029 2.6896 3.0372 3.9668
4.8496 5.2119 5.1972 4.6969 4.1811 4.1608
4.4597 4.7457 4.8588 5.2128 5.6514 5.5402
4.6105 3.6431 3.2431 2.7328 1.9024 1.2394
1.2265 1.2201 0.4780 -0.6107 -1.5054 -2.1583
-2.8507 -3.3501 -3.5570 -3.6268 -4.0535 -5.1947
-6.1528 -6.4140 -6.3340 -6.3027 -6.4692 -6.3800
-5.9892 -5.6848 -5.5984 -5.5423 -5.2830 -4.8572
-4.4361 -4.4471 -4.4002 -3.6526 -3.2158 -3.5036
-3.4880 -2.9519 -2.6108 -2.7422 -3.0006 -2.9970
-2.9510 -3.1809 -3.0650 -2.4351 -2.1114 -2.3928
-2.9620 -3.3804 -3.8292 -4.3781 -4.5694 -4.7322
-4.8600 -4.5961 -4.4839 -4.5106 -4.3653 -4.0857
-3.6351 -3.5459 -3.7786 -3.8816 -4.1032 -4.4223
-4.6825 -4.8370 -5.0393 -5.4623 -5.5497 -4.9933
-4.2752 -4.0030 -4.2623 -4.3837 -4.2411 -4.1621
-3.9818 -3.7841 -3.7519 -3.6830 -3.4770 -3.1864
-2.7689 -2.4526 -2.3561 -2.2476 -2.0462 -1.8034
-1.8485 -1.8503 -1.6342 -1.6296 -1.4595 -1.4430
-1.8724 -2.2181 -2.4232 -2.5887 -2.7101 -2.3055
-1.3841 -0.7055 -0.3285 0.1010 0.4274 0.3538
0.0982 -0.0149 -0.0158 -0.0535 -0.0076 0.2187
0.3768 0.6794 1.2771 1.6853 2.4090 3.6274
4.4633 5.0031 5.6514 6.5525 7.1723 7.1686
7.0711 6.4100 4.2362 0.6683 -3.4108 -7.6076
-11.4008 -14.0583 -15.9167 -17.3374 -17.6629 -16.6854
-15.3107 -13.3135 -9.6463 -4.4030 1.2301 5.9971
9.3728 10.6574 9.7728 7.5171 4.2343 0.8973
-1.5920 -2.7957 -2.3120 -1.2508 -0.5372 0.1340
0.5533 0.5432 0.5736 1.5869 3.8784 5.7902
6.3621 6.0431 4.7051 2.3391 -0.4260 -3.2095
-5.9690 -8.1566 -9.0394 -8.5373 -7.0504 -4.8876
-2.3230 -0.0012 1.3773 1.3763 0.6664 0.2913
-0.0968 -0.5207 -1.0467 -2.4095 -3.5736 -3.2352
-1.8136 -0.9538 -1.2894 -1.8274 -2.4490 -3.2564
-4.0150 -5.1166 -6.2219 -6.6946 -6.9392 -7.0651
-6.6468 -5.4900 -3.6122 -1.2545 0.8761 1.8913
2.0540 1.8471 1.2807 0.8181 0.5938 0.3942
0.5202 1.2457 2.4522 4.4881 7.1244 9.1042
10.1553 10.7355 11.2155 11.9355 13.0242 14.1663
14.5893 13.7544 11.7948 9.3442 6.8577 5.0104
4.4862 4.5570 4.2940 3.9198 3.7451 3.4968
2.9165 2.4411 2.5138 2.3096 1.4830 0.8567
0.4098 -0.2853 -0.9428 -0.7994 0.0319 0.6167
0.8439 1.3496 2.4540 3.6816 4.6830 5.7828
6.8154 7.3405 7.2439 6.1819 3.9538 0.8457
-2.2366 -4.3442 -5.3944 -5.6868 -5.1820 -3.6095
-1.3778 0.7197 2.2508 3.1611 3.4260 2.9956
2.5496 2.4586 2.3749 2.0466 1.3827 0.8071
0.6609 0.9064 1.6411 2.8485 3.8416 4.2020
4.1358 3.5271 2.8623 2.7096 3.1731 4.0797
4.3427 3.9924 3.5933 2.6397 1.1519 -0.3589
-1.4164 -1.8385 -1.9268 -1.8946 -1.9875 -2.3259
-2.3130 -1.7750 -1.2343 -0.4987 0.4153 0.6783
0.1680 -0.7801 -1.9157 -2.8399 -3.4275 -3.3843
-2.7534 -1.9433 -0.9962 -0.1971 0.2949 0.3252
0.0107 -0.0371 0.1900 0.2112 -0.1456 -0.6964
-1.6077 -3.0385 -4.2817 -4.5503 -4.0417 -3.3319
-2.8850 -2.9227 -3.2739 -3.6565 -3.8146 -3.8716
-3.8863 -3.9838 -4.5107 -5.2997 -6.0648 -6.9595
-7.8662 -8.5457 -8.8942 -8.5889 -8.1761 -7.1811
-5.5397 -4.8997 -4.9144 -5.1222 -5.0799 -5.0965
-5.4055 -4.3158 -2.6873 -1.4394 -0.1282 0.7077
1.1123 1.2061 1.2337 1.5565 1.7183 1.6273
0.9578 -0.3994 -1.5958 -2.8022 -3.8220 -4.2238
-4.2432 -3.7604 -3.1710 -2.4620 -1.8422 -1.5663
-1.0450 -0.6762 -0.1907 0.9008 1.9895 2.9891
3.8011 4.3041 4.3381 3.9491 3.6714 3.1721
2.7960 2.8291 2.6038 2.3252 1.6548 0.9973
0.7344 0.5927 1.0911 1.5169 2.1477 3.0709
3.3459 3.2999 2.6820 2.0236 1.2254 0.0392
-0.3811 -0.5512 -0.4758 -0.4050 -0.7195 -0.8969
-1.6712 -2.2450 -2.3949 -2.9034 -3.0671 -2.9981
-2.5613 -2.3287 -2.5098 -1.9333 -1.1195 -0.0813
0.7178 0.8107 0.8493 0.4327 0.5146 0.8557
0.8585 1.3072 1.4479 1.6815 1.7955 1.2980
0.5798 -0.4087 -0.9429 -1.6942 -2.3894 -2.2082
-2.1383 -2.5761 -3.4073 -4.1421 -4.0768 -3.3650
-3.0947 -3.0910 -2.8832 -3.2124 -3.9821 -4.6211
-5.1416 -5.2952 -5.3485 -5.4359 -5.1582 -4.8722
-4.3232 -3.8938 -3.4588 -2.8565 -2.6506 -2.1991
-2.2220 -2.3471 -2.3866 -2.6699 -2.0391 -1.3025
-0.7140 -0.0565 0.5945 0.9642 0.9642 1.4506
1.4378 0.7702 0.1734 -0.3471 -0.7986 -1.3402
-1.3614 -1.0368 -0.5632 0.0014 0.4557 0.9771
0.9311 0.6249 0.3076 -0.2643 -0.8942 -1.7981
-2.7039 -3.4782 -4.0419 -4.2359 -4.2717 -4.4713
-4.6157 -4.3260 -4.1605 -3.6906 -2.7205 -2.0547
-1.6142 -1.4046 -1.1600 -0.9062 -0.8648 -0.7545
-0.9825 -1.2464 -1.2161 -0.9476 -0.2846 0.3113
0.6506 0.5320 0.3021 0.4483 0.8428 1.3678
1.7688 2.2249 2.4814 2.5844 2.9908 3.3614
3.5472 3.4037 3.0865 2.7996 2.5826 2.7058
3.1959 3.9177 4.5495 5.0516 5.3559 5.4378
5.4295 5.2207 4.9568 4.6332 4.7352 5.2493
5.1049 4.6800 4.6920 4.7371 3.9821 2.8547
3.1049 4.4548 4.8897 4.2469 4.2736 5.3081
5.7430 5.4690 5.7964 6.5035 6.7141 6.6028
6.6230 6.5339 6.2892 6.1532 5.7072 4.8502
4.0713 3.5701 3.1665 2.9724 3.6124 4.4851
4.5504 4.3380 4.5366 4.9623 5.3274 5.7439
6.2322 6.8492 7.7375 8.2047 7.6584 6.4952
5.4230 4.2938 2.7738 2.1430 2.4768 2.2285
2.1660 3.5407 5.1839 5.8442 6.2138 6.7591
6.4272 4.8658 3.2676 2.0611 0.4023 -1.3081
-1.5849 -0.8364 -0.4796 -0.0971 0.7416 1.3825
1.5719 1.2436 0.5834 -0.1679 -0.4538 -0.0842
0.0721 0.3765 1.4616 2.4556 2.6414 2.8639
3.9517 4.6809 4.3306 3.5664 2.6745 1.6823
0.6128 0.1788 1.0441 2.5779 3.7770 4.4078
5.1425 5.7154 5.0487 3.9618 2.9880 1.9186
0.9622 -0.1568 -0.9541 -1.2769 -1.3973 -1.4497
-1.6612 -1.8451 -1.8755 -1.5086 -0.6911 0.0969
0.5245 0.5227 -0.1992 -0.7159 -0.4695 -0.3463
-0.1201 -0.1348 -0.6359 -0.9688 -0.8392 -0.3132
-0.2451 -0.5155 -0.6102 -0.5274 -0.5431 -0.6028
-0.0005 0.4675 0.4206 0.2468 -0.0401 0.0059
-0.3812 -0.6268 -0.3987 -1.0580 -1.2815 -1.2364
-1.9399 -2.4300 -2.5321 -2.6764 -3.0268 -2.8760
-2.9578 -3.7330 -4.0245 -3.8985 -3.6585 -3.9114
-4.3905 -4.3804 -4.4061 -4.2066 -3.5978 -2.4916
-1.4728 -1.2585 -0.9219 -0.6911 -1.1022 -2.0659
-2.5027 -2.3390 -2.9339 -2.7702 -1.5270 -0.5367
-0.0861 -0.0327 0.1751 0.0675 -0.3279 -0.5578
-0.8603 -1.0958 -1.2649 -1.5252 -1.7735 -1.8939
-1.9951 -2.0052 -1.7027 -1.3753 -1.4838 -1.9675
-2.2204 -2.1514 -2.0291 -1.7873 -1.2502 -0.6893
-0.3528 -0.1900 -0.2571 -0.2406 -0.3767 -0.9045
-1.1877 -1.0342 -0.7325 -0.4594 -0.1569 0.3130
0.8610 1.2666 1.3291 1.1433 0.9907 0.9226
0.7360 0.1732 -0.3776 -0.6011 -0.7206 -0.7804
-0.7335 -0.4217 0.0077 0.0408 -0.1496 0.0334
0.3884 0.2670 -0.1247 -0.0797 0.1410 0.2394
0.4601 0.7360 1.0734 1.4615 1.9516 2.6514
3.1461 3.1047 2.6955 2.4445 2.3636 1.9406
1.4449 1.2353 1.1350 0.9355 0.6789 0.3405
-0.0788 -0.3905 -0.7353 -1.1740 -1.7340 -2.5193
-3.3340 -3.9188 -4.0549 -3.8112 -3.6080 -3.4379
-3.0167 -2.4586 -1.8673 -1.3422 -1.0820 -1.0839
-1.0324 -0.7859 -0.6379 -0.6038 -0.3455 0.3746
1.1598 1.6959 2.1566 2.5327 2.5778 1.9323
1.3502 1.2582 0.8739 0.3985 0.1962 0.1548
-0.0604 -0.3868 -0.3308 -0.2885 -0.3620 -0.3537
-0.4696 -0.5643 -0.6121 -0.7556 -1.0416 -1.3377
-1.4259 -1.2788 -0.8338 -0.2131 0.2964 0.6081
0.7010 0.6890 0.6458 0.6605 1.0099 1.4587
1.7897 1.9488 1.8026 1.5653 1.3584 1.5433
2.0591 2.2752 2.2587 2.1989 1.9433 1.3713
0.7966 0.2872 -0.2315 -0.5000 -0.5027 -0.3758
-0.2149 0.0104 0.1851 0.2228 -0.0503 -0.6775
-1.4030 -2.2683 -3.1327 -4.0228 -4.8237 -5.1226
-5.0996 -4.9635 -4.7695 -4.3750 -3.7442 -3.4692
-3.8205 -4.5451 -5.2412 -5.7148 -6.0136 -5.9419
-5.6918 -5.5299 -5.5033 -5.5354 -5.3754 -5.1262
-4.8274 -4.6389 -4.7023 -4.8789 -5.1621 -5.4426
-5.8086 -6.2095 -6.2922 -6.2214 -6.1506 -5.9290
-5.5998 -5.3313 -5.1833 -4.9111 -4.3842 -3.9373
-3.6421 -3.3911 -3.4545 -3.7331 -3.9115 -3.8085
-3.5382 -3.3800 -3.1198 -2.9221 -3.0361 -3.4885
-4.1414 -4.4633 -4.4780 -4.1424 -3.3543 -2.5819
-2.2306 -2.1718 -2.1157 -2.2913 -2.6794 -2.9249
-2.9479 -2.8449 -2.8715 -2.8375 -2.6095 -2.6251
-2.6389 -2.2858 -1.8931 -1.6173 -1.3727 -1.2688
-1.5345 -1.8407 -1.6688 -1.1262 -0.5341 0.0692
0.7441 1.1690 1.2554 1.3152 1.2646 1.0090
0.8949 1.1598 1.2600 0.9777 0.9317 1.1018
1.1083 1.2315 1.6821 1.9653 1.8200 1.6811
1.6876 1.6287 1.5037 1.4292 1.5018 1.5873
1.5055 1.3556 1.2581 1.1588 1.0899 1.0568
0.9446 0.7827 0.5758 0.5372 0.8076 1.1505
1.5285 1.9349 2.5262 3.3198 3.6131 3.1404
2.6889 2.7358 2.6696 2.0305 1.3997 1.3170
1.3151 1.0301 0.9409 1.3611 1.5772 1.0623
0.6549 0.5050 0.0011 -0.5552 -0.8734 -0.8256
-0.5249 -0.2996 -0.1883 -0.2748 -0.4927 -0.7741
-1.0601 -1.5005 -2.0155 -2.2445 -2.3557 -2.2665
-2.0366 -1.8178 -1.5474 -1.1695 -0.4734 0.1206
0.5887 1.1901 1.5763 1.8098 1.9229 1.9735
2.0222 1.8273 1.5974 1.4825 1.5349 1.8742
2.5243 3.6618 5.1515 6.5961 7.9929 9.3483
10.4168 10.9364 10.6853 9.9635 8.9943 7.7998
6.6476 5.9827 6.3763 7.1276 7.6398 8.4333
9.3584 10.0361 10.3184 10.4582 10.4766 10.0839
9.5147 8.6752 7.6830 6.8866 6.1059 5.6259
5.8531 6.5501 7.1037 7.2462 7.4577 7.4025
6.6338 5.8282 5.2802 4.7800 4.1335 3.7740
3.8089 3.8963 4.4572 5.5551 6.6577 7.1864
7.1312 6.7827 6.0618 5.2131 4.5510 4.0121
3.4539 3.1284 3.3482 3.8153 4.0351 3.7969
3.3252 2.7468 1.9468 1.2433 0.9574 0.9850
0.8755 0.2484 -0.5470 -1.2983 -2.0321 -2.7199
-3.3673 -3.7075 -4.1048 -4.7485 -5.2119 -5.4905
-5.6386 -5.6377 -5.4620 -5.2082 -4.9820 -4.7944
-4.5728 -4.4432 -4.5940 -4.8285 -5.0455 -5.0234
-4.9360 -5.1632 -5.5126 -5.8795 -6.0322 -5.8308
-5.4170 -5.0096 -4.7558 -4.5278 -4.4294 -4.3374
-4.0579 -3.6018 -3.3351 -3.7360 -4.0174 -3.7839
-3.5705 -3.5245 -3.4501 -3.1816 -3.1098 -2.9866
-2.4625 -2.0009 -1.7710 -1.9052 -2.3843 -3.0979
-3.8243 -4.2740 -4.7577 -5.2708 -5.7030 -6.0552
-6.2299 -6.1030 -5.3232 -4.3282 -3.7039 -3.5430
-3.8124 -4.1554 -4.2878 -4.3595 -4.5637 -4.6906
-4.5177 -4.1499 -3.7526 -3.2110 -2.6335 -2.1802
-1.7646 -1.3811 -0.9976 -0.8468 -0.9131 -0.9765
-0.9103 -0.5204 0.0037 0.5509 1.0116 1.3095
1.3840 1.1431 1.0134 1.0493 0.8644 0.4672
0.4350 0.7817 0.8001 0.7495 1.2194 1.9044
1.9964 1.4952 1.0759 0.6447 0.0681 -0.4836
-0.9830 -1.4308 -2.0634 -2.0303 -0.9710 -0.1756
0.4286 1.3518 1.8989 1.1587 0.1141 0.0028
-0.3485 -0.9131 -0.5756 0.1453 0.4433 1.1798
2.9509 3.6773 3.2267 3.3270 3.2470 2.4571
2.3403 3.0557 3.2865 3.1679 3.8392 5.1045
5.5937 5.7343 6.4304 6.7063 6.3955 6.2557
6.2171 5.8622 5.5284 5.3757 5.1458 5.2038
5.7297 5.8943 5.3730 5.1440 5.0171 4.1610
3.2598 3.1007 3.1228 2.5223 2.1950 2.8120
2.7752 1.5743 0.9674 1.1154 0.5269 -0.3163
-0.1434 0.0616 -0.7200 -1.2267 -0.9444 -1.1697
-1.7398 -1.6230 -1.3692 -1.8897 -2.4285 -2.1720
-1.8271 -1.5954 -1.1651 -0.5526 0.0395 0.1453
-0.0561 -0.1435 -0.3752 -0.7237 -0.5646 -0.0340
0.1011 -0.0046 0.3568 0.6823 0.1922 -0.4809
-0.4331 0.0092 -0.0579 -0.1802 0.1416 0.0202
-0.4763 -0.5711 -0.6134 -1.2000 -1.8483 -2.1168
-2.6695 -3.4088 -3.7518 -3.9752 -4.2750 -4.5628
-4.8810 -5.3702 -5.7123 -5.7169 -5.8925 -6.1362
-6.1095 -6.3293 -6.8580 -7.0548 -7.1238 -7.2985
-7.1762 -6.8222 -6.4727 -6.1491 -5.5863 -4.6870
-4.1123 -4.0856 -3.9440 -3.4640 -2.9959 -2.7909
-2.5959 -2.0709 -1.9136 -2.3237 -2.5371 -2.5224
-2.6345 -2.6254 -2.1656 -1.8722 -1.9219 -1.7509
-1.5991 -1.8824 -2.2658 -2.2208 -1.9854 -1.7518
-1.1881 -0.5757 -0.3725 -0.4451 -0.6299 -0.9527
-1.4005 -1.8033 -1.8116 -1.4925 -1.3012 -1.2258
-0.9785 -0.7283 -0.6824 -0.7283 -0.5003 -0.0093
0.3531 0.8358 1.3949 1.6781 1.9678 2.5002
2.6961 2.4322 2.5195 2.7558 2.6547 2.6887
3.1724 3.4151 2.9581 2.5544 2.5563 2.6170
2.6630 2.7641 2.8358 2.8754 2.8312 2.6390
2.5223 2.4358 2.1866 1.7443 1.3563 1.3572
1.5439 1.6211 1.4418 1.1310 0.9277 0.6877
0.5084 0.5213 0.4312 0.2381 0.2510 0.5654
0.9673 1.1319 1.2735 1.5705 1.7038 1.6680
1.7075 1.9604 2.1710 2.1884 2.1149 1.9852
2.0404 2.1434 2.0202 2.0229 2.2933 2.4891
2.2298 1.5944 1.0510 0.4983 0.0624 -0.2723
-0.8829 -1.5146 -1.8539 -1.9477 -2.3422 -2.6999
-2.4912 -2.7165 -3.5863 -4.1583 -4.2530 -4.5408
-5.0585 -4.8360 -4.2576 -4.0967 -3.8475 -3.3537
-2.9096 -2.8342 -2.7348 -2.2585 -2.0406 -2.0185
-1.8935 -1.6930 -1.4815 -1.2820 -0.7017 0.0403
0.6730 1.2201 1.4096 1.2790 0.6849 -0.0535
-0.4856 -1.0521 -1.5955 -1.7280 -1.4043 -1.0604
-1.1238 -0.8856 -0.3155 0.0799 0.3539 0.3502
0.1286 -0.1702 -0.5519 -0.9004 -1.3859 -1.9174
-2.2144 -2.3625 -2.4535 -2.2521 -1.2241 0.2656
1.1245 1.2367 1.2560 1.0684 0.0891 -0.9169
-1.0539 -1.0300 -1.1238 -0.8369 -0.1362 0.6307
1.0086 1.3847 1.5373 1.0270 0.7171 0.5911
0.2665 0.2435 0.7594 1.0380 0.7888 0.8201
1.0619 0.9994 0.6224 0.0633 -0.3459 -0.4792
-0.5004 -0.4535 -0.4912 -0.3404 -0.0277 0.0918
0.5304 1.2146 1.8123 2.2307 2.6481 3.1162
3.0399 2.9636 3.1852 3.4270 3.7268 4.0229
4.6399 5.1116 5.1898 5.1291 4.6482 4.2491
4.2684 4.4551 4.7364 4.9820 5.1180 4.9470
4.4633 3.8656 3.2762 2.8697 2.6031 2.3907
2.1893 2.2316 2.5139 2.4890 2.3125 2.2472
2.2003 1.9640 1.3139 0.7290 0.1801 -0.6098
-0.9970 -0.7983 -0.4719 -0.4600 -0.5804 -0.5335
-0.6623 -0.8048 -0.6917 -0.6944 -1.1000 -1.6260
-1.7547 -1.4632 -1.0135 -0.5611 -0.1675 0.2987
0.7584 0.9442 0.9791 1.0233 1.0840 1.0122
0.7511 0.4780 0.3667 0.7483 1.4067 2.1396
2.8762 3.1594 3.1419 2.8476 2.3676 1.8398
1.0435 0.4724 0.2352 -0.0995 -0.5078 -0.9234
-1.3538 -1.7924 -2.2605 -2.5749 -2.5998 -2.5400
-2.7000 -3.0136 -3.1487 -3.3667 -3.7253 -4.0315
-4.4242 -4.9308 -5.3869 -5.2030 -4.5501 -3.9892
-3.3722 -2.6954 -1.9046 -1.2701 -1.1883 -1.3805
-1.6508 -1.9221 -2.3101 -2.6559 -2.3625 -1.8200
-1.5028 -1.3023 -1.1175 -0.9979 -1.4504 -2.3644
-3.1203 -3.5561 -3.5947 -3.2472 -2.6541 -1.9313
-1.1184 -0.3855 0.1634 0.6848 0.7658 -0.1152
-1.2389 -1.6490 -1.3207 -0.8067 -0.4297 0.1156
0.9349 1.9179 2.6002 2.2609 1.0729 -0.6283
-2.3525 -2.9934 -2.0941 -0.1768 1.4848 2.3952
2.9947 3.2301 3.2780 3.0159 2.2481 1.2172
0.2747 -0.2540 -0.3672 0.4834 2.0963 3.6945
4.8862 5.3938 5.4058 4.9414 4.2122 3.5078
2.9101 2.4816 2.1221 1.9170 2.3474 3.3837
4.0835 3.9832 3.2890 2.4568 1.8554 1.5593
1.5814 1.4793 0.9974 0.4945 0.1432 0.0641
0.3749 0.8972 1.3892 1.5179 1.4195 1.2696
0.7501 -0.0637 -0.8463 -1.2711 -1.3134 -1.1212
-0.5860 0.1956 0.8053 0.8154 0.4135 0.1634
0.2002 0.2747 0.2903 0.2783 0.3096 0.2977
0.0714 -0.1741 -0.4214 -0.7396 -1.2996 -1.8284
-1.8532 -1.7704 -1.5948 -1.3474 -1.3585 -1.5598
-1.8072 -1.7520 -1.3373 -0.8555 -0.5106 -0.3911
-0.4978 -0.5594 -0.2982 0.0365 0.2204 0.1146
-0.1097 -0.3479 -0.7856 -1.1415 -1.4054 -1.6353
-1.8440 -2.0325 -1.9580 -1.7042 -1.0946 -0.3231
0.1845 0.7482 1.0360 0.8797 0.9643 0.9321
0.4521 0.3611 0.8549 1.3091 1.5758 1.8259
1.8829 1.6484 1.6209 2.0935 2.5735 2.8264
2.9763 2.7041 2.0668 1.3606 0.6333 0.0254
-0.4537 -0.8279 -0.9870 -0.7691 -0.3838 -0.2229
-0.4150 -0.9447 -1.5774 -1.9967 -2.1263 -2.2109
-2.3866 -2.4804 -2.3461 -2.1732 -2.0629 -1.9259
-1.7677 -1.3236 -0.6771 -0.2284 0.1045 0.2783
0.0981 -0.4776 -1.2417 -1.4964 -1.1323 -0.5769
0.3647 1.3220 1.6282 1.6181 1.5234 1.3569
0.9670 0.3298 -0.1254 -0.4114 -0.4601 -0.4666
-0.6238 -0.5199 -0.2560 -0.1548 -0.2578 -0.3406
-0.4905 -0.8537 -1.2077 -1.4808 -1.4992 -1.2546
-1.0385 -0.9971 -0.9870 -0.9217 -0.8647 -0.8188
-0.8758 -1.0937 -1.3870 -1.7227 -2.1953 -2.6100
-2.6799 -2.4243 -1.7392 -0.8601 -0.2588 0.0548
-0.0298 -0.4730 -0.7857 -0.7921 -0.9015 -1.2059
-1.4873 -1.9737 -2.4280 -2.5438 -2.5641 -2.3627
-1.9590 -1.4054 -0.7093 -0.3949 -0.4693 -0.7351
-1.1608 -1.4974 -1.6648 -1.6629 -1.8707 -2.3084
-2.6239 -2.8528 -2.9255 -2.9255 -2.9172 -3.1857
-3.7200 -3.9030 -4.0041 -4.1853 -4.1144 -3.8928
-3.6740 -3.5140 -3.3374 -3.1811 -3.0947 -3.0413
-3.1471 -3.3310 -3.4882 -3.7053 -3.8156 -3.7172
-3.5020 -3.0469 -2.4004 -1.6786 -1.0064 -0.6422
-0.7232 -1.0183 -1.1112 -1.0340 -0.9071 -0.6799
-0.3471 0.0612 0.4971 0.9274 1.2483 1.3440
1.4185 1.8093 2.0189 1.7973 1.6263 1.4212
1.0957 0.8079 0.8162 0.9412 0.8493 0.8585
0.9283 0.8345 0.7279 0.6745 0.5633 0.5017
0.7637 1.2253 1.5656 1.7725 1.9831 2.2258
2.1743 1.8985 1.8966 2.0281 2.0971 2.0879
2.0557 2.0299 1.9785 1.8984 1.6824 1.5030
1.4929 1.5932 1.5794 1.4883 1.6732 1.8074
1.6520 1.5315 1.5453 1.5564 1.4929 1.5665
1.8984 2.1679 2.2414 2.3637 2.4842 2.5136
2.5219 2.4281 2.3352 2.4088 2.6286 3.0148
3.3145 3.5021 3.8819 4.2010 4.3821 4.6157
4.9164 5.1251 5.0304 4.7518 4.5283 4.5504
4.5798 4.5339 4.7564 5.0975 5.2410 5.1417
4.8998 4.5670 4.1725 3.9122 3.6768 3.3973
3.4681 3.6612 3.5757 3.4138 3.3311 3.3016
3.1380 2.8630 2.7610 2.6175 2.3039 2.1531
1.9609 1.5453 1.2520 1.1039 0.8621 0.6782
0.8694 1.1554 1.0267 0.6359 0.3149 -0.0685
-0.4869 -0.8529 -1.2069 -1.2621 -1.0901 -0.9853
-0.8299 -0.6607 -0.7609 -1.0488 -1.3062 -1.7357
-2.2948 -2.4079 -2.0667 -1.6520 -1.1361 -0.4915
0.0170 0.2156 0.2285 0.0639 -0.2543 -0.6212
-0.9881 -1.2373 -1.3504 -1.3688 -1.2704 -1.1895
-1.1554 -0.9366 -0.7738 -0.8805 -1.1536 -1.3798
-1.4129 -1.6989 -2.2102 -2.4759 -2.6350 -2.8244
-2.9118 -2.8281 -2.7067 -2.8465 -3.2088 -3.4746
-3.7265 -4.0309 -4.1293 -4.1017 -4.0484 -3.8856
-3.6842 -3.5941 -3.6235 -3.4304 -3.0231 -3.0074
-3.3182 -3.2888 -2.9127 -2.5982 -2.3196 -1.9316
-1.5932 -1.5159 -1.7421 -1.9665 -2.1559 -2.3619
-2.4805 -2.6240 -2.4925 -2.1661 -2.0824 -2.3307
-2.6222 -2.7077 -2.9835 -3.2291 -3.1307 -2.9937
-2.9155 -2.8419 -2.5707 -2.2405 -2.0824 -1.9518
-1.9886 -2.0024 -1.8111 -1.7458 -1.5463 -1.2493
-1.0488 -0.7775 -0.4502 -0.0263 0.1650 0.3103
0.6395 0.8280 1.0698 1.2013 1.2390 1.1765
0.8666 0.7645 0.7461 0.9586 1.4772 1.8845
2.2312 2.4574 2.6781 2.7039 2.3186 2.0501
1.8073 1.5581 1.5544 1.6556 1.8027 1.9719
2.4160 2.6193 2.4445 2.6358 2.7388 2.7388
2.7176 2.3645 2.0225 1.7613 1.7319 1.8165
1.8579 2.0969 2.3452 2.3903 2.1963 2.0721
2.0740 1.9526 1.7687 1.4891 1.1553 0.8050
0.5622 0.5677 0.7259 0.9530 1.2620 1.7447
1.9746 1.6601 1.2611 1.1194 1.0560 0.9806
1.0109 1.1194 1.4266 1.5314 1.4376 1.6004
1.6997 1.6491 1.4569 1.2960 1.2325 1.0790
0.9815 0.9024 0.7967 0.7599 0.7277 0.7222
0.7277 0.5374 0.3516 0.2872 0.2201 0.2017
0.2808 0.5420 0.7406 0.6725 0.5199 0.3682
0.1392 -0.0254 -0.0447 -0.0401 -0.0254 -0.0456
-0.0925 -0.3234 -0.6948 -0.8935 -0.7546 -0.5367
-0.5955 -0.6351 -0.5394 -0.4815 -0.6139 -0.8705
-0.9578 -1.0480 -1.0057 -0.8043 -0.7473 -0.6664
-0.7178 -0.7933 -0.8760 -1.1142 -1.1022 -1.0167
-0.8981 -0.7270 -0.7316 -0.8107 -0.9735 -1.1694
-1.2254 -1.1390 -0.8861 -0.3868 0.0435 0.1851
0.0711 -0.1744 -0.5551 -1.1758 -1.7478 -2.0852
-2.0990 -1.9353 -1.9252 -2.0880 -2.3868 -2.7519
-3.1280 -3.4600 -3.5832 -3.3000 -2.8080 -2.3629
-1.6503 -1.0324 -0.9524 -1.0829 -1.3937 -1.8158
-2.1432 -2.3317 -2.4301 -2.6011 -2.7271 -2.8485
-3.1620 -3.2595 -3.2209 -3.1482 -2.9561 -2.9037
-2.7630 -2.4908 -2.3161 -2.3620 -2.2738 -1.9694
-1.8618 -1.7331 -1.4020 -1.0287 -0.8218 -0.5266
0.0978 0.5824 0.8086 0.9796 1.4054 1.9654
2.0472 1.8293 2.0067 2.7212 3.1102 2.9051
3.0182 3.3805 3.0320 2.2339 2.1226 2.4794
2.1428 1.4550 1.2536 1.3989 1.4375 1.2426
1.1663 1.0403 0.6651 0.4812 0.5630 0.5299
0.2219 0.2522 0.5722 0.4012 0.3239 0.6688
0.8214 0.7313 0.8288 1.2113 1.3584 1.4329
1.7253 1.8026 1.9497 2.4141 2.8545 3.0495
3.0090 3.0421 3.0780 3.0375 3.0246 3.2665
3.3640 3.1773 3.4053 3.3676 3.1580 3.4642
3.7906 3.8706 3.6168 3.3456 2.9134 2.5538
2.7285 2.6835 2.4858 2.3230 2.0922 1.7777
1.4026 1.2766 1.0366 1.0246 1.3455 1.5009
1.6711 1.6812 1.5552 1.2619 0.8628 0.7938
0.8315 0.6448 0.2926 0.0361 -0.0660 -0.3317
-0.6609 -0.8099 -1.0214 -1.2577 -1.5290 -1.8508
-2.0311 -2.3658 -2.7741 -2.9120 -2.7548 -2.4807
-2.2481 -1.8812 -1.6265 -1.8941 -2.1957 -2.1074
-2.1322 -2.4081 -2.6545 -2.7483 -2.7787 -2.8182
-2.5074 -2.0357 -1.7203 -1.5658 -1.5547 -1.5612
-1.6899 -1.9584 -2.2637 -2.3686 -2.3474 -2.5515
-2.6472 -2.6132 -2.7051 -2.6968 -2.6334 -2.5718
-2.5286 -2.3961 -2.2398 -2.2343 -1.9897 -1.7451
-1.6789 -1.6394 -1.7883 -1.6532 -1.4453 -1.6614
-1.5980 -1.1520 -0.8035 -0.7171 -0.5203 0.0131
0.2135 0.2475 0.4830 0.7395 0.9813 1.0632
1.2600 1.6103 1.6986 1.5662 1.5312 1.6122
1.4935 1.2563 1.1809 1.0347 1.1653 1.7602
1.7427 1.3988 1.4889 1.9257 1.8282 1.0770
1.4163 1.9423 0.9335 0.1740 1.2360 1.3703
-0.0624 -0.0872 0.4627 0.0250 -0.3143 0.1225
0.4287 0.2034 -0.3327 -0.5948 -0.1129 -0.1948
-0.8329 -0.7079 -0.4752 -0.8311 -1.1815 -1.1024
-0.9424 -1.2035 -1.3268 -0.9056 -0.7438 -0.9148
-0.8293 -0.6638 -0.6776 -0.6794 -0.4762 -0.2877
-0.3778 -0.3566 -0.0798 -0.1240 -0.3778 -0.2159
0.1289 0.2346 0.3073 0.5096 0.7965 1.2176
1.7519 2.3073 2.5068 2.3505 2.4884 2.7055
2.4958 2.0949 1.8861 1.9726 2.0195 2.0802
2.3275 2.2494 2.0048 1.9395 1.6020 1.3059
1.4907 1.6167 1.3666 1.0843 1.0641 1.3510
1.7399 2.1077 2.5252 2.7284 2.5795 2.3606
2.1767 1.8972 1.8365 2.0158 1.9174 1.9339
2.1951 2.1215 1.8392 1.8723 2.0958 1.8677
1.4208 1.5339 2.0176 2.2503 2.3505 2.5197
2.5436 2.2190 1.7132 1.4751 1.2158 0.5638
-0.1939 -0.5525 -0.4229 -0.4836 -0.7098 -0.6868
-0.5856 -0.7098 -0.8597 -0.6096 -0.4431 -0.6151
-0.6666 -0.5066 -0.3981 -0.4974 -0.6657 -0.7383
-0.9434 -1.3783 -1.6698 -1.9264 -2.2013 -2.1664
-1.9585 -1.6762 -1.1521 -0.8036 -1.2716 -1.8271
-1.6395 -1.5503 -1.9457 -2.1333 -2.1213 -2.6887
-3.6312 -3.6045 -3.1356 -3.2671 -3.1448 -2.6602
-2.4018 -2.3310 -2.4753 -2.6556 -2.9066 -3.1733
-3.0721 -2.9259 -2.8864 -2.7153 -2.6639 -2.7668
-2.6234 -2.5039 -2.7319 -2.8000 -2.6087 -2.4855
-2.3411 -2.1682 -2.2685 -2.4294 -2.2188 -2.1995
-2.4588 -2.3871 -2.2243 -2.4027 -2.6997 -2.8616
-3.0997 -3.4593 -3.5420 -3.2027 -2.9839 -2.9407
-3.0657 -3.4768 -3.9191 -4.2712 -4.4846 -4.8184
-4.8680 -4.5627 -4.6970 -4.9214 -4.5030 -3.9457
-3.9448 -3.8639 -3.3057 -3.0602 -3.3278 -3.5623
-3.4758 -3.1586 -3.2506 -3.4869 -2.9591 -2.3807
-2.4368 -2.4928 -1.9586 -1.5053 -1.5384 -1.4712
-1.3462 -1.2257 -1.1632 -1.1797 -1.0740 -0.9232
-0.9020 -0.7807 -0.5397 -0.6924 -0.8800 -0.8322
-0.6813 -0.5719 -0.6446 -0.5020 -0.4220 -0.5480
-0.3356 0.1361 0.3375 0.2428 0.0911 -0.1784
-0.4882 -0.7200 -0.5462 -0.3880 -0.6611 -0.7338
-0.6850 -0.8101 -1.3977 -1.7959 -1.5237 -1.4648
-1.2432 -0.6345 -0.2740 -0.5866 -0.9701 -0.9830
-1.2313 -1.2763 -1.0970 -1.0676 -1.0382 -0.8110
-0.7062 -1.1531 -1.0694 -0.2887 0.2897 0.6409
1.0970 1.3959 1.0649 1.1540 1.7830 2.0359
2.0239 2.1297 2.6152 2.9527 3.0318 2.9233
2.8111 2.9876 2.9499 3.0511 3.2194 3.1945
3.4180 3.5587 3.3113 2.9122 2.8901 3.0124
2.9141 2.8929 2.9085 3.1467 3.5807 3.6157
3.2580 3.1642 3.4557 3.5623 3.4005 3.2773
3.4124 3.7113 3.6736 3.3389 3.1991 3.4318
3.8511 3.7306 3.1219 2.9499 3.1209 3.0980
2.9554 3.1908 3.8318 4.2888 4.2391 3.8134
3.6276 3.9219 3.9485 3.4409 3.2230 3.4373
3.6662 3.8915 3.8814 3.7655 3.8538 4.0469
3.9255 3.5191 3.4915 3.4805 3.1485 2.8120
2.7917 3.0372 3.0602 2.9766 2.8487 2.8046
2.7264 2.5011 2.5370 2.5637 2.5637 2.5894
2.5232 2.6382 2.7660 2.6096 2.2878 2.1821
2.3834 2.3614 2.3899 2.9738 3.2570 3.2055
3.3057 3.3572 3.2708 3.0041 2.7402 2.0294
1.2855 1.3940 1.3085 0.7669 0.7292 1.2174
1.4207 1.3397 1.5503 1.4703 1.0427 0.8570
0.7935 0.7393 0.4487 0.3227 0.6721 0.7659
0.6096 0.5829 0.8616 0.9002 0.4744 0.6372
1.1411 1.4482 1.6597 1.6193 1.8721 2.1324
2.0055 1.9972 1.9567 2.0110 2.1471 2.0358
1.5567 1.1797 1.5301 1.4078 0.7852 0.9250
1.0409 0.9507 1.2818 1.3268 0.5342 -0.1270
0.1011 0.1195 -0.5445 -0.8828 -0.6355 -0.5592
-0.5481 -0.0479 0.1103 0.1443 0.8248 0.8257
0.3052 0.3990 0.8100 0.9250 0.6868 0.8808
0.8174 0.7779 1.3756 1.2339 0.8174 0.7429
0.8100 0.7687 0.2914 0.0422 0.1020 0.4514
0.7916 0.4395 0.1939 0.3567 0.3760 -0.0277
-1.0116 -1.9532 -2.2990 -2.4029 -2.5896 -2.5335
-1.9827 -1.2056 -0.9813 -1.2728 -1.2461 -1.2599
-1.8420 -2.4636 -2.4342 -2.6355 -3.5376 -3.5064
-2.7174 -2.7008 -3.0944 -2.9142 -2.5335 -2.6300
-2.8332 -2.4443 -2.0489 -3.2351 -3.8990 -2.5123
-2.3192 -2.7293 -1.9440 -1.9017 -2.5813 -2.0985
-1.8935 -2.4847 -1.5514 -1.3601 -2.6374 -2.1114
-1.2360 -1.8926 -1.9477 -0.9703 -0.7974 -1.0962
-0.3496 0.3033 -0.8949 -1.4484 -0.1417 0.0284
-1.0263 -0.8084 0.1921 -0.1896 -0.9096 -0.5859
-0.1307 -0.1353 -0.2861 -0.1463 -0.2208 -0.6475
-0.6521 -0.4673 -0.6806 -1.2066 -1.2939 -1.0576
-0.9767 -0.3716 0.2518 0.5985 1.0932 1.2771
1.3884 1.2109 0.3226 -0.0636 0.2159 -0.1519
-0.6383 -0.7248 -0.6227 0.3943 1.8573 2.7006
2.7677 2.6803 2.8210 2.2619 1.2973 1.3635
1.6725 1.5677 1.8169 1.9824 1.4849 1.2532
1.6173 1.2513 0.5286 0.4642 0.7621 1.0435
1.1962 1.0169 0.5249 0.5497 0.4201 0.0311
-0.2705 -1.2351 -1.9892 -2.4489 -2.6135 -2.2080
-2.1317 -2.4204 -2.8259 -2.7864 -2.6273 -2.9970
-3.1432 -3.2039 -3.3289 -3.0393 -2.6476 -2.0986
-1.9882 -2.6384 -2.5262 -2.5492 -3.3372 -3.1800
-2.5354 -2.4958 -2.7266 -2.8581 -2.9455 -2.9179
-2.8416 -2.9087 -3.0568 -3.1938 -3.3805 -3.5377
-3.6499 -3.8586 -3.7014 -3.4430 -3.7694 -4.1023
-4.0241 -4.1372 -4.6862 -4.7460 -4.7166 -4.7975
-4.3460 -4.0664 -3.5515 -3.4899 -3.9285 -3.9423
-4.4527 -4.7120 -4.4039 -3.7235 -3.2205 -3.1966
-2.7212 -2.6200 -2.6871 -2.5805 -2.7681 -2.7993
-2.6458 -2.4131 -2.4784 -2.3175 -2.0434 -2.1299
-1.6398 -1.1929 -1.0761 -0.8701 -0.6559 -0.4793
-0.8140 -0.9336 -1.1175 -1.2177 -0.2972 -0.0710
-0.2825 -0.2136 -0.5207 -1.2306 -1.6471 -0.7083
-0.3037 -0.6651 -0.2421 -0.0867 -0.5409 -0.9106
-0.5023 0.1313 -0.0554 -0.0775 -0.1372 -1.0779
-0.9887 -0.0499 0.1147 0.2462 0.4917 0.2959
-0.3000 -0.2292 0.2968 0.0963 0.1662 0.3474
0.0890 0.1037 0.2646 0.4126 0.4779 0.6894
0.6425 0.3372 0.6251 0.8522 0.5221 -0.0242
-0.2283 0.0604 0.0935 -0.2485 -0.2577 0.2922
0.7464 0.6030 0.4016 0.4384 0.2637 -0.0499
-0.1759 -0.0398 0.1597 0.1597 0.1561 0.2710
0.4788 0.5956 0.3473 -0.0278 -0.3690 -0.4784
-0.4536 -0.4426 -0.2210 -0.1088 -0.0683 0.0016
0.1174 0.2968 0.2931 0.2765 0.2756 0.2977
0.3841 0.4899 0.5818 0.5312 0.4834 0.3427
0.1386 0.3243 0.5551 0.6443 0.8347 0.9634
0.9689 0.8347 0.8264 0.7896 0.4871 0.4448
0.4889 0.5358 0.7593 0.8393 0.8935 0.8402
0.6039 0.4108 0.3234 0.5000 0.7271 0.8715
0.9505 0.8898 0.8908 0.9873 1.1574 1.4167
1.6246 1.6126 1.5390 1.5059 1.2135 0.9165
0.9358 1.0967 1.3009 1.6475 2.1469 2.3639
2.3298 2.3528 2.1993 2.0172 1.9960 2.0393
2.1652 2.3786 2.7611 2.9901 3.1721 3.4158
3.4682 3.5666 3.4627 3.5593 3.9041 3.9243
4.0494 4.1220 4.2931 4.5349 4.4080 4.4007
4.3482 4.1312 4.0126 3.7901 3.5602 3.3726
3.2577 3.2742 3.1096 2.9818 2.9698 2.8172
2.7501 2.6103 2.2296 1.9188 1.6540 1.4048
1.1528 0.9468 0.9799 0.9303 0.8696 0.8668
0.9110 1.1583 1.2346 1.4792 1.8397 1.9454
2.0953 2.1597 2.2048 2.1992 2.0622 1.9482
1.9087 2.0153 2.1790 2.2415 2.1937 2.2038
2.0595 1.9519 1.9767 1.7716 1.6392 1.3716
0.9404 0.7702 0.6056 0.4530 0.2535 -0.0095
-0.1999 -0.5337 -0.7627 -0.9631 -1.3852 -1.7079
-1.8588 -1.8698 -1.8854 -1.9507 -1.8909 -1.8716
-2.0077 -2.0767 -1.9011 -1.7015 -1.6574 -1.5305
-1.5930 -1.7291 -1.5158 -1.4900 -1.4404 -1.2445
-1.2555 -1.1461 -1.1719 -1.3401 -1.2859 -1.2850
-1.4165 -1.5618 -1.6712 -1.6739 -1.7723 -1.8404
-1.6574 -1.5259 -1.5075 -1.5195 -1.6482 -1.8523
-1.9415 -2.1098 -2.2367 -2.0868 -2.0712 -1.9268
-1.8082 -1.9112 -1.8192 -1.8045 -1.7172 -1.7604
-1.7990 -1.4698 -1.4551 -1.5912 -1.7815 -1.9048
-1.8661 -1.8560 -1.7098 -1.7172 -1.7595 -1.9590
-2.2634 -2.3737 -2.6275 -2.6855 -2.6459 -2.6974
-2.5108 -2.3765 -2.2377 -1.9949 -1.7972 -1.5885
-1.5222 -1.3788 -1.0827 -0.9310 -0.5751 -0.2027
-0.1484 -0.0133 0.2709 0.5780 1.0350 1.4295
1.4727 1.6346 1.8111 1.9307 2.2286 2.4704
2.8189 2.9835 3.0663 3.1040 2.9320 3.0488
3.2438 3.2971 3.0102 2.8364 3.0185 2.8484
2.7233 2.8116 2.9201 2.8143 2.5918 2.7950
2.7684 2.7518 3.0047 2.8640 2.7941 2.8152
2.8116 2.8566 2.9964 3.2989 3.2815 3.1941
3.0240 2.8483 3.0249 3.0608 2.9844 2.8263
2.7748 3.0019 3.0148 2.8677 2.6690 2.6304
2.7628 2.8143 2.8833 2.6350 2.4382 2.4879
2.1789 1.8644 2.0446 2.2074 1.9545 2.0925
2.0741 1.7412 1.5996 1.1904 1.0856 0.8483
0.5136 0.4888 0.2791 0.1982 -0.0952 -0.5522
-0.5715 -0.6193 -0.8988 -0.9687 -1.1214 -1.5490
-1.7963 -1.8809 -2.1099 -2.3251 -2.1752 -1.9287
-2.0897 -2.2184 -1.9986 -2.0924 -2.0492 -1.6814
-1.5830 -1.4653 -1.4432 -1.3412 -1.0487 -0.9237
-0.8400 -0.8400 -0.6570 -0.3048 -0.3214 -0.4510
-0.4014 -0.4943 -0.4970 -0.3692 -0.4823 -0.4133
-0.2754 -0.3894 -0.6138 -0.6819 -0.4887 -0.4786
-0.5485 -0.5614 -0.7986 -1.0800 -1.2501 -1.6106
-1.9085 -2.0575 -2.3343 -2.4042 -2.5164 -2.6221
-2.4879 -2.5127 -2.5890 -2.7095 -2.8897 -3.1959
-3.5968 -3.6180 -3.7136 -4.0382 -3.8497 -3.4745
-3.3522 -3.2161 -3.0368 -3.1196 -3.2244 -3.1628
-3.1564 -3.0828 -3.1922 -3.1260 -2.8419 -2.8106
-2.6580 -2.4557 -2.0575 -1.9417 -2.1136 -1.6437
-1.5426 -1.7375 -1.5122 -1.4442 -1.4984 -1.6042
-1.2961 -1.0984 -1.4718 -1.3679 -1.1187 -0.9568
-0.8483 -0.9320 -0.8915 -0.8704 -0.8106 -0.6037
-0.4051 -0.4768 -0.6479 -0.5642 -0.3867 -0.2442
-0.4207 -0.7113 -0.7490 -0.6883 -0.5256 -0.6074
-0.6111 -0.4833 -0.6534 -0.6230 -0.5421 -0.8051
-1.1205 -1.1021 -1.0654 -1.2493 -1.3854 -1.2879
-1.2934 -1.3569 -1.1849 -1.5794 -1.9490 -1.6787
-1.5408 -1.6815 -2.0382 -1.9895 -1.6382 -1.7771
-2.0015 -2.0870 -2.2222 -2.3270 -2.2176 -2.1716
-2.5017 -2.6249 -2.3629 -2.1881 -2.3178 -2.1495
-1.6484 -1.6235 -1.9049 -1.9877 -1.8562 -2.0327
-2.1900 -1.8185 -1.5996 -1.7440 -1.7918 -1.4911
-1.3541 -1.3606 -1.3127 -1.2999 -1.0212 -0.8851
-0.8006 -0.6479 -0.4925 -0.1881 0.1337 0.3838
0.4647 0.6707 0.6698 0.5990 0.5797 0.5604
1.0790 1.6041 1.8643 1.9829 2.0445 1.8339
1.2841 0.9254 0.7572 0.5245 0.5530 1.1268
1.4670 1.4339 1.3208 1.1838 1.0257 0.7847
0.7204 0.5999 0.3811 0.1732 0.0693 0.0610
0.2744 0.6146 0.6348 0.6955 0.6201 0.2017
-0.2479 -0.3583 -0.3785 -0.6038 -0.5109 -0.3243
-0.2930 -0.4208 -0.5072 -0.3077 -0.0659 -0.1964
-0.3960 0.0895 0.4620 0.1107 -0.1964 -0.0374
0.2771 0.3728 0.1861 -0.1606 -0.1385 0.4610
0.4813 -0.1689 -0.0263 0.5217 0.6505 0.8114
0.8592 0.5842 0.5631 0.7332 0.6900 0.6449
0.7682 0.7773 0.7231 0.8114 0.6155 0.6394
0.8665 0.7249 0.8224 0.8813 0.7534 0.7976
0.7580 0.6109 0.5548 0.6762 0.7452 0.5787
0.5750 0.6817 0.5704 0.5907 0.7268 0.8380
