Archivo de aceleración parte de la Red Nacional de Acelerógrafos (RENAC) Ecuador
          
Evento: 201604162358
Fecha del evento UTM (aammdd):                  2016    4   16
Hora del registro UTM (hhmmss): 23   58 14.00
Estación:                                      AES2
Componente:                                        E
Frecuencia de muestreo (Hz):            1.000000e+02
Unidades: cm/s^2
_____________________________________________
0.0000 0.0000 0.0000 0.0001 0.0001 0.0001
0.0002 0.0003 0.0003 0.0004 0.0005 0.0006
0.0008 0.0009 0.0010 0.0012 0.0013 0.0016
0.0018 0.0019 0.0021 0.0024 0.0026 0.0028
0.0031 0.0030 0.0037 0.0039 0.0040 0.0048
0.0049 0.0051 0.0054 0.0059 0.0060 0.0064
0.0070 0.0072 0.0078 0.0079 0.0086 0.0093
0.0093 0.0101 0.0103 0.0111 0.0117 0.0114
0.0126 0.0133 0.0132 0.0144 0.0150 0.0155
0.0159 0.0162 0.0169 0.0168 0.0174 0.0181
0.0179 0.0190 0.0215 0.0223 0.0217 0.0220
0.0228 0.0238 0.0253 0.0254 0.0249 0.0273
0.0266 0.0280 0.0297 0.0270 0.0285 0.0300
0.0307 0.0330 0.0343 0.0344 0.0338 0.0355
0.0378 0.0359 0.0357 0.0394 0.0370 0.0363
0.0426 0.0418 0.0400 0.0444 0.0440 0.0453
0.0469 0.0478 0.0501 0.0482 0.0508 0.0517
0.0499 0.0532 0.0564 0.0544 0.0546 0.0558
0.0568 0.0606 0.0584 0.0581 0.0621 0.0624
0.0626 0.0651 0.0656 0.0661 0.0696 0.0743
0.0760 0.0721 0.0726 0.0751 0.0741 0.0779
0.0777 0.0740 0.0783 0.0797 0.0844 0.0855
0.0822 0.0870 0.0847 0.0843 0.0861 0.0890
0.0904 0.0919 0.0949 0.0918 0.0991 0.0987
0.0935 0.0994 0.1005 0.0988 0.1019 0.1064
0.1042 0.1078 0.1056 0.1080 0.1109 0.1041
0.1083 0.1130 0.1150 0.1111 0.1145 0.1203
0.1191 0.1179 0.1209 0.1235 0.1217 0.1213
0.1204 0.1296 0.1277 0.1247 0.1289 0.1290
0.1364 0.1328 0.1334 0.1394 0.1356 0.1323
0.1317 0.1423 0.1428 0.1405 0.1433 0.1416
0.1467 0.1484 0.1477 0.1512 0.1505 0.1449
0.1436 0.1501 0.1536 0.1596 0.1563 0.1530
0.1572 0.1518 0.1535 0.1551 0.1613 0.1656
0.1581 0.1637 0.1627 0.1690 0.1721 0.1649
0.1768 0.1689 0.1699 0.1799 0.1655 0.1742
0.1772 0.1683 0.1692 0.1779 0.1724 0.1660
0.1880 0.1823 0.1781 0.1841 0.1732 0.1770
0.1860 0.1884 0.1817 0.1810 0.1887 0.1857
0.1873 0.2004 0.1881 0.1881 0.1982 0.1873
0.1951 0.2006 0.2014 0.1910 0.1870 0.1949
0.1908 0.1971 0.1881 0.1944 0.2033 0.2007
0.1997 0.1946 0.2018 0.2033 0.2039 0.2062
0.2093 0.2192 0.2131 0.2002 0.2016 0.2038
0.2172 0.2160 0.1995 0.2068 0.1970 0.1984
0.2101 0.2054 0.1997 0.2002 0.2224 0.2141
0.2032 0.2080 0.2084 0.2194 0.2171 0.2184
0.2232 0.2156 0.2133 0.2296 0.2336 0.2205
0.2307 0.2372 0.2214 0.2199 0.2265 0.2241
0.2270 0.2183 0.2158 0.2187 0.2225 0.2309
0.2274 0.2258 0.2251 0.2288 0.2272 0.2273
0.2220 0.2148 0.2331 0.2368 0.2178 0.2151
0.2206 0.2243 0.2216 0.2207 0.2371 0.2271
0.2189 0.2271 0.2253 0.2235 0.2199 0.2235
0.2299 0.2281 0.2272 0.2281 0.2281 0.2254
0.2226 0.2327 0.2236 0.2190 0.2290 0.2199
0.2318 0.2290 0.2190 0.2318 0.2291 0.2245
0.2254 0.2218 0.2254 0.2327 0.2236 0.2318
0.2373 0.2200 0.2328 0.2446 0.2355 0.2328
0.2237 0.2282 0.2346 0.2346 0.2319 0.2255
0.2374 0.2301 0.2237 0.2401 0.2447 0.2356
0.2255 0.2392 0.2410 0.2319 0.2347 0.2347
0.2338 0.2219 0.2283 0.2338 0.2247 0.2338
0.2311 0.2229 0.2247 0.2238 0.2302 0.2347
0.2329 0.2220 0.2302 0.2448 0.2184 0.2338
0.2430 0.2220 0.2266 0.2357 0.2494 0.2357
0.2375 0.2339 0.2284 0.2403 0.2321 0.2321
0.2148 0.2239 0.2248 0.2075 0.2203 0.2248
0.2348 0.2358 0.2312 0.2267 0.2267 0.2303
0.2276 0.2321 0.2267 0.2203 0.2212 0.2249
0.2285 0.2222 0.2249 0.2185 0.2121 0.2322
0.2377 0.2331 0.2267 0.2213 0.2286 0.2249
0.2213 0.2231 0.2313 0.2423 0.2277 0.2268
0.2332 0.2222 0.2323 0.2323 0.2250 0.2286
0.2159 0.2241 0.2323 0.2214 0.2259 0.2278
0.2287 0.2360 0.2269 0.2232 0.2414 0.2342
0.2232 0.2351 0.2278 0.2196 0.2269 0.2342
0.2214 0.2196 0.2278 0.2114 0.2269 0.2333
0.2178 0.2342 0.2297 0.2242 0.2415 0.2361
0.2297 0.2434 0.2333 0.2270 0.2370 0.2261
0.2179 0.2151 0.2288 0.2352 0.2306 0.2370
0.2307 0.2288 0.2279 0.2270 0.2298 0.2252
0.2352 0.2371 0.2307 0.2398 0.2398 0.2252
0.2271 0.2380 0.2307 0.2271 0.2234 0.2262
0.2362 0.2280 0.2335 0.2362 0.2207 0.2280
0.2299 0.2226 0.2344 0.2399 0.2290 0.2244
0.2417 0.2344 0.2235 0.2427 0.2317 0.2226
0.2363 0.2336 0.2308 0.2418 0.2363 0.2318
0.2299 0.2391 0.2509 0.2263 0.2363 0.2327
0.2327 0.2491 0.2209 0.2245 0.2291 0.2236
0.2245 0.2245 0.2373 0.2400 0.2282 0.2391
0.2401 0.2264 0.2300 0.2255 0.2392 0.2401
0.2328 0.2383 0.2282 0.2292 0.2383 0.2328
0.2310 0.2456 0.2410 0.2319 0.2374 0.2347
0.2338 0.2502 0.2474 0.2356 0.2456 0.2338
0.2356 0.2365 0.2274 0.2356 0.2374 0.2329
0.2302 0.2420 0.2329 0.2338 0.2366 0.2284
0.2375 0.2311 0.2311 0.2339 0.2302 0.2293
0.2266 0.2366 0.2375 0.2220 0.2312 0.2312
0.2366 0.2530 0.2366 0.2330 0.2330 0.2367
0.2394 0.2276 0.2339 0.2385 0.2358 0.2321
0.2212 0.2294 0.2394 0.2312 0.2331 0.2413
0.2495 0.2431 0.2221 0.2267 0.2294 0.2231
0.2304 0.2249 0.2267 0.2395 0.2277 0.2313
0.2432 0.2340 0.2286 0.2249 0.2313 0.2268
0.2268 0.2432 0.2277 0.2323 0.2441 0.2204
0.2414 0.2514 0.2286 0.2441 0.2423 0.2323
0.2323 0.2369 0.2432 0.2305 0.2378 0.2423
0.2260 0.2287 0.2369 0.2296 0.2442 0.2415
0.2305 0.2305 0.2223 0.2378 0.2333 0.2278
0.2333 0.2233 0.2233 0.2297 0.2279 0.2242
0.2324 0.2424 0.2333 0.2270 0.2343 0.2315
0.2315 0.2252 0.2270 0.2379 0.2352 0.2470
0.2297 0.2143 0.2316 0.2307 0.2316 0.2371
0.2225 0.2280 0.2480 0.2398 0.2380 0.2389
0.2407 0.2344 0.2234 0.2371 0.2362 0.2316
0.2289 0.2271 0.2317 0.2280 0.2344 0.2417
0.2271 0.2335 0.2499 0.2435 0.2335 0.2226
0.2445 0.2518 0.2244 0.2263 0.2390 0.2308
0.2336 0.2554 0.2308 0.2281 0.2436 0.2372
0.2418 0.2318 0.2318 0.2281 0.2300 0.2363
0.2345 0.2436 0.2354 0.2464 0.2482 0.2263
0.2345 0.2409 0.2437 0.2337 0.2273 0.2455
0.2373 0.2264 0.2218 0.2264 0.2392 0.2364
0.2364 0.2337 0.2346 0.2255 0.2310 0.2346
0.2365 0.2447 0.2319 0.2428 0.2356 0.2283
0.2465 0.2374 0.2265 0.2338 0.2365 0.2320
0.2347 0.2283 0.2256 0.2256 0.2302 0.2302
0.2283 0.2384 0.2329 0.2284 0.2220 0.2311
0.2357 0.2284 0.2411 0.2375 0.2311 0.2348
0.2339 0.2257 0.2266 0.2357 0.2339 0.2503
0.2567 0.2385 0.2348 0.2412 0.2321 0.2230
0.2266 0.2212 0.2248 0.2330 0.2276 0.2267
0.2230 0.2267 0.2239 0.2139 0.2285 0.2221
0.2240 0.2322 0.2212 0.2240 0.2194 0.2240
0.2258 0.2203 0.2267 0.2358 0.2213 0.2195
0.2368 0.2185 0.2186 0.2313 0.2268 0.2286
0.2268 0.2277 0.2277 0.2222 0.2204 0.2286
0.2386 0.2432 0.2295 0.2213 0.2341 0.2423
0.2332 0.2332 0.2369 0.2214 0.2177 0.2250
0.2360 0.2305 0.2214 0.2269 0.2260 0.2278
0.2333 0.2232 0.2233 0.2315 0.2324 0.2324
0.2205 0.2315 0.2406 0.2315 0.2260 0.2269
0.2288 0.2388 0.2479 0.2361 0.2370 0.2315
0.2397 0.2397 0.2197 0.2288 0.2288 0.2243
0.2297 0.2306 0.2288 0.2325 0.2225 0.2261
0.2370 0.2261 0.2289 0.2316 0.2352 0.2371
0.2298 0.2225 0.2371 0.2325 0.2189 0.2280
0.2207 0.2316 0.2289 0.2280 0.2380 0.2235
0.2262 0.2371 0.2280 0.2271 0.2353 0.2262
0.2208 0.2180 0.2217 0.2171 0.2262 0.2363
0.2299 0.2308 0.2235 0.2326 0.2381 0.2308
0.2254 0.2318 0.2381 0.2299 0.2418 0.2482
0.2354 0.2263 0.2309 0.2354 0.2327 0.2272
0.2318 0.2291 0.2154 0.2318 0.2236 0.2227
0.2337 0.2191 0.2246 0.2300 0.2428 0.2337
0.2282 0.2328 0.2246 0.2364 0.2310 0.2392
0.2456 0.2355 0.2346 0.2319 0.2246 0.2173
0.2201 0.2246 0.2201 0.2283 0.2420 0.2338
0.2274 0.2238 0.2247 0.2402 0.2320 0.2265
0.2210 0.2210 0.2393 0.2283 0.2256 0.2302
0.2247 0.2293 0.2329 0.2393 0.2293 0.2302
0.2357 0.2266 0.2293 0.2248 0.2293 0.2311
0.2293 0.2321 0.2221 0.2321 0.2266 0.2266
0.2430 0.2212 0.2257 0.2385 0.2321 0.2294
0.2303 0.2312 0.2166 0.2321 0.2367 0.2221
0.2239 0.2185 0.2303 0.2267 0.2285 0.2358
0.2212 0.2231 0.2203 0.2194 0.2331 0.2258
0.2258 0.2413 0.2295 0.2186 0.2186 0.2331
0.2350 0.2277 0.2277 0.2359 0.2359 0.2159
0.2304 0.2259 0.2277 0.2377 0.2377 0.2414
0.2286 0.2405 0.2387 0.2223 0.2168 0.2232
0.2332 0.2314 0.2341 0.2396 0.2369 0.2305
0.2323 0.2333 0.2287 0.2260 0.2315 0.2315
0.2315 0.2260 0.2187 0.2260 0.2278 0.2288
0.2288 0.2397 0.2461 0.2315 0.2352 0.2406
0.2270 0.2261 0.2279 0.2179 0.2215 0.2306
0.2288 0.2279 0.2334 0.2379 0.2480 0.2416
0.2307 0.2334 0.2307 0.2398 0.2343 0.2207
0.2298 0.2189 0.2189 0.2353 0.2325 0.2362
0.2243 0.2262 0.2435 0.2307 0.2307 0.2362
0.2362 0.2399 0.2317 0.2371 0.2371 0.2381
0.2417 0.2335 0.2417 0.2335 0.2253 0.2436
0.2299 0.2253 0.2335 0.2144 0.2235 0.2409
0.2299 0.2199 0.2418 0.2454 0.2236 0.2236
0.2290 0.2409 0.2418 0.2418 0.2491 0.2336
0.2200 0.2409 0.2391 0.2236 0.2346 0.2245
0.2309 0.2327 0.2300 0.2282 0.2173 0.2337
0.2391 0.2337 0.2291 0.2291 0.2264 0.2282
0.2437 0.2364 0.2337 0.2346 0.2173 0.2228
0.2374 0.2210 0.2210 0.2356 0.2347 0.2392
0.2365 0.2338 0.2183 0.2256 0.2374 0.2292
0.2338 0.2302 0.2384 0.2220 0.2129 0.2347
0.2138 0.2211 0.2429 0.2265 0.2220 0.2174
0.2202 0.2348 0.2393 0.2248 0.2211 0.2384
0.2293 0.2321 0.2266 0.2175 0.2385 0.2330
0.2330 0.2330 0.2303 0.2312 0.2111 0.2203
0.2321 0.2294 0.2367 0.2321 0.2376 0.2221
0.2157 0.2312 0.2212 0.2303 0.2294 0.2231
0.2349 0.2367 0.2413 0.2331 0.2404 0.2404
0.2286 0.2295 0.2304 0.2404 0.2386 0.2331
0.2249 0.2304 0.2441 0.2432 0.2377 0.2295
0.2395 0.2414 0.2286 0.2277 0.2323 0.2286
0.2177 0.2296 0.2378 0.2250 0.2305 0.2341
0.2259 0.2241 0.2287 0.2296 0.2223 0.2296
0.2351 0.2323 0.2287 0.2269 0.2415 0.2433
0.2387 0.2397 0.2296 0.2324 0.2315 0.2224
0.2442 0.2406 0.2233 0.2515 0.2424 0.2215
0.2370 0.2279 0.2242 0.2333 0.2361 0.2443
0.2352 0.2315 0.2343 0.2352 0.2325 0.2288
0.2389 0.2234 0.2243 0.2370 0.2279 0.2361
0.2352 0.2280 0.2207 0.2289 0.2343 0.2207
0.2252 0.2325 0.2325 0.2207 0.2389 0.2408
0.2198 0.2426 0.2344 0.2326 0.2554 0.2435
0.2435 0.2362 0.2308 0.2390 0.2317 0.2426
0.2381 0.2354 0.2381 0.2335 0.2463 0.2381
0.2363 0.2472 0.2418 0.2381 0.2381 0.2381
0.2445 0.2454 0.2400 0.2436 0.2373 0.2418
0.2400 0.2227 0.2382 0.2446 0.2318 0.2391
0.2437 0.2355 0.2327 0.2400 0.2428 0.2264
0.2410 0.2619 0.2492 0.2464 0.2364 0.2383
0.2483 0.2392 0.2474 0.2519 0.2328 0.2328
0.2392 0.2319 0.2337 0.2374 0.2356 0.2246
0.2256 0.2347 0.2338 0.2338 0.2411 0.2320
0.2320 0.2475 0.2420 0.2365 0.2274 0.2311
0.2447 0.2420 0.2311 0.2293 0.2338 0.2429
0.2430 0.2284 0.2293 0.2329 0.2329 0.2421
0.2430 0.2302 0.2275 0.2257 0.2302 0.2375
0.2239 0.2321 0.2494 0.2467 0.2367 0.2321
0.2403 0.2430 0.2403 0.2349 0.2376 0.2412
0.2412 0.2431 0.2367 0.2413 0.2404 0.2376
0.2349 0.2294 0.2404 0.2340 0.2313 0.2367
0.2276 0.2431 0.2404 0.2194 0.2204 0.2204
0.2249 0.2340 0.2249 0.2268 0.2459 0.2377
0.2286 0.2323 0.2277 0.2313 0.2314 0.2368
0.2441 0.2387 0.2387 0.2314 0.2232 0.2268
0.2332 0.2296 0.2378 0.2414 0.2296 0.2378
0.2351 0.2278 0.2323 0.2260 0.2369 0.2342
0.2214 0.2315 0.2287 0.2378 0.2306 0.2260
0.2415 0.2242 0.2315 0.2342 0.2242 0.2324
0.2169 0.2333 0.2342 0.2151 0.2343 0.2261
0.2215 0.2388 0.2352 0.2261 0.2270 0.2234
0.2179 0.2325 0.2389 0.2234 0.2234 0.2316
0.2289 0.2389 0.2453 0.2298 0.2243 0.2289
0.2207 0.2225 0.2325 0.2262 0.2380 0.2389
0.2216 0.2280 0.2371 0.2353 0.2262 0.2235
0.2289 0.2271 0.2308 0.2362 0.2280 0.2262
0.2217 0.2253 0.2417 0.2253 0.2263 0.2436
0.2308 0.2326 0.2345 0.2208 0.2281 0.2327
0.2281 0.2318 0.2427 0.2445 0.2272 0.2236
0.2263 0.2127 0.2227 0.2300 0.2172 0.2300
0.2309 0.2254 0.2373 0.2291 0.2282 0.2255
0.2255 0.2419 0.2364 0.2309 0.2246 0.2191
0.2255 0.2355 0.2510 0.2446 0.2292 0.2337
0.2246 0.2292 0.2346 0.2201 0.2265 0.2310
0.2383 0.2283 0.2356 0.2438 0.2329 0.2402
0.2265 0.2256 0.2374 0.2320 0.2374 0.2429
0.2311 0.2302 0.2411 0.2311 0.2247 0.2320
0.2302 0.2311 0.2384 0.2338 0.2329 0.2320
0.2320 0.2284 0.2202 0.2284 0.2257 0.2202
0.2202 0.2193 0.2202 0.2230 0.2385 0.2366
0.2294 0.2348 0.2294 0.2157 0.2276 0.2376
0.2358 0.2330 0.2358 0.2403 0.2258 0.2267
0.2194 0.2258 0.2404 0.2294 0.2304 0.2222
0.2349 0.2377 0.2258 0.2313 0.2377 0.2359
0.2277 0.2386 0.2404 0.2377 0.2450 0.2295
0.2186 0.2304 0.2295 0.2359 0.2350 0.2314
0.2414 0.2295 0.2232 0.2195 0.2250 0.2332
0.2250 0.2332 0.2277 0.2287 0.2296 0.2205
0.2351 0.2314 0.2296 0.2296 0.2260 0.2360
0.2305 0.2287 0.2278 0.2315 0.2315 0.2278
0.2278 0.2315 0.2433 0.2306 0.2278 0.2360
0.2297 0.2306 0.2279 0.2315 0.2397 0.2370
0.2297 0.2334 0.2306 0.2279 0.2352 0.2379
0.2334 0.2270 0.2288 0.2307 0.2361 0.2316
0.2307 0.2380 0.2380 0.2252 0.2252 0.2334
0.2225 0.2398 0.2307 0.2407 0.2444 0.2243
0.2444 0.2234 0.2380 0.2444 0.2280 0.2390
0.2371 0.2344 0.2326 0.2390 0.2253 0.2262
0.2335 0.2244 0.2235 0.2253 0.2299 0.2290
0.2363 0.2390 0.2427 0.2408 0.2299 0.2354
0.2336 0.2318 0.2318 0.2299 0.2309 0.2300
0.2336 0.2300 0.2318 0.2373 0.2236 0.2272
0.2391 0.2409 0.2446 0.2364 0.2327 0.2318
0.2318 0.2337 0.2282 0.2355 0.2364 0.2246
0.2328 0.2373 0.2264 0.2373 0.2474 0.2364
0.2337 0.2292 0.2219 0.2319 0.2328 0.2301
0.2356 0.2410 0.2401 0.2192 0.2292 0.2365
0.2347 0.2292 0.2192 0.2365 0.2347 0.2347
0.2338 0.2365 0.2320 0.2220 0.2265 0.2356
0.2329 0.2083 0.2275 0.2238 0.2138 0.2284
0.2238 0.2393 0.2293 0.2238 0.2393 0.2248
0.2211 0.2302 0.2157 0.2211 0.2293 0.2239
0.2366 0.2248 0.2239 0.2412 0.2285 0.2330
0.2330 0.2166 0.2203 0.2294 0.2403 0.2321
0.2276 0.2212 0.2221 0.2267 0.2285 0.2385
0.2349 0.2376 0.2322 0.2440 0.2367 0.2194
0.2358 0.2267 0.2277 0.2359 0.2249 0.2331
0.2432 0.2377 0.2304 0.2286 0.2323 0.2414
0.2350 0.2295 0.2332 0.2232 0.2250 0.2268
0.2268 0.2314 0.2223 0.2268 0.2332 0.2177
0.2223 0.2278 0.2123 0.2132 0.2314 0.2287
0.2196 0.2323 0.2314 0.2360 0.2305 0.2196
0.2324 0.2260 0.2369 0.2342 0.2169 0.2297
0.2351 0.2361 0.2306 0.2333 0.2288 0.2279
0.2370 0.2206 0.2233 0.2233 0.2188 0.2352
0.2343 0.2316 0.2379 0.2398 0.2361 0.2379
0.2425 0.2361 0.2325 0.2416 0.2453 0.2371
0.2316 0.2280 0.2252 0.2344 0.2407 0.2380
0.2362 0.2371 0.2353 0.2307 0.2307 0.2344
0.2408 0.2390 0.2362 0.2317 0.2280 0.2317
0.2399 0.2426 0.2399 0.2417 0.2290 0.2308
0.2408 0.2390 0.2317 0.2308 0.2272 0.2281
0.2336 0.2317 0.2354 0.2390 0.2400 0.2345
0.2354 0.2254 0.2245 0.2354 0.2309 0.2354
0.2373 0.2327 0.2209 0.2373 0.2437 0.2245
0.2255 0.2245 0.2373 0.2382 0.2328 0.2391
0.2337 0.2246 0.2328 0.2428 0.2383 0.2319
0.2383 0.2428 0.2283 0.2365 0.2292 0.2274
0.2456 0.2401 0.2447 0.2356 0.2274 0.2319
0.2329 0.2447 0.2374 0.2283 0.2392 0.2347
0.2383 0.2502 0.2511 0.2511 0.2429 0.2429
0.2411 0.2402 0.2457 0.2484 0.2439 0.2338
0.2430 0.2366 0.2366 0.2494 0.2375 0.2485
0.2466 0.2393 0.2430 0.2366 0.2485 0.2385
0.2366 0.2549 0.2412 0.2394 0.2476 0.2367
0.2348 0.2476 0.2494 0.2449 0.2485 0.2367
0.2321 0.2331 0.2276 0.2367 0.2312 0.2358
0.2413 0.2222 0.2258 0.2340 0.2459 0.2413
0.2368 0.2495 0.2377 0.2395 0.2258 0.2167
0.2432 0.2413 0.2313 0.2386 0.2459 0.2414
0.2423 0.2405 0.2350 0.2332 0.2286 0.2305
0.2350 0.2359 0.2323 0.2369 0.2268 0.2259
0.2250 0.2214 0.2433 0.2405 0.2451 0.2387
0.2351 0.2424 0.2251 0.2305 0.2333 0.2260
0.2278 0.2433 0.2342 0.2278 0.2424 0.2278
0.2306 0.2324 0.2224 0.2215 0.2315 0.2388
0.2324 0.2370 0.2361 0.2434 0.2443 0.2370
0.2334 0.2334 0.2352 0.2316 0.2425 0.2425
0.2297 0.2234 0.2361 0.2389 0.2334 0.2371
0.2243 0.2252 0.2343 0.2380 0.2407 0.2362
0.2416 0.2353 0.2316 0.2380 0.2371 0.2426
0.2326 0.2399 0.2535 0.2399 0.2380 0.2362
0.2335 0.2335 0.2299 0.2353 0.2445 0.2335
0.2308 0.2399 0.2354 0.2345 0.2290 0.2399
0.2490 0.2336 0.2418 0.2482 0.2418 0.2336
0.2327 0.2555 0.2409 0.2336 0.2573 0.2391
0.2382 0.2509 0.2400 0.2364 0.2373 0.2400
0.2382 0.2437 0.2482 0.2428 0.2382 0.2382
0.2446 0.2373 0.2355 0.2419 0.2446 0.2355
0.2373 0.2465 0.2364 0.2401 0.2383 0.2383
0.2419 0.2365 0.2374 0.2310 0.2474 0.2456
0.2274 0.2383 0.2365 0.2338 0.2310 0.2310
0.2347 0.2256 0.2320 0.2393 0.2365 0.2347
0.2402 0.2384 0.2356 0.2375 0.2357 0.2420
0.2384 0.2402 0.2384 0.2229 0.2402 0.2439
0.2348 0.2412 0.2430 0.2403 0.2384 0.2330
0.2394 0.2421 0.2284 0.2339 0.2385 0.2321
0.2348 0.2358 0.2312 0.2330 0.2440 0.2349
0.2212 0.2321 0.2440 0.2367 0.2322 0.2349
0.2404 0.2395 0.2303 0.2367 0.2440 0.2468
0.2449 0.2522 0.2614 0.2431 0.2386 0.2349
0.2295 0.2331 0.2213 0.2359 0.2359 0.2231
0.2532 0.2459 0.2323 0.2459 0.2423 0.2405
0.2478 0.2441 0.2359 0.2441 0.2478 0.2478
0.2596 0.2551 0.2350 0.2405 0.2487 0.2433
0.2378 0.2342 0.2396 0.2396 0.2342 0.2324
0.2478 0.2433 0.2433 0.2442 0.2242 0.2342
0.2297 0.2369 0.2406 0.2397 0.2370 0.2260
0.2433 0.2251 0.2342 0.2488 0.2288 0.2461
0.2516 0.2397 0.2452 0.2498 0.2325 0.2288
0.2416 0.2379 0.2389 0.2352 0.2279 0.2371
0.2343 0.2398 0.2389 0.2398 0.2444 0.2280
0.2353 0.2398 0.2344 0.2344 0.2335 0.2326
0.2253 0.2462 0.2426 0.2280 0.2344 0.2262
0.2371 0.2390 0.2390 0.2481 0.2308 0.2262
0.2408 0.2372 0.2335 0.2363 0.2408 0.2499
0.2408 0.2281 0.2381 0.2409 0.2308 0.2418
0.2491 0.2473 0.2336 0.2336 0.2464 0.2363
0.2309 0.2418 0.2509 0.2436 0.2309 0.2355
0.2537 0.2491 0.2446 0.2446 0.2400 0.2318
0.2355 0.2519 0.2428 0.2492 0.2410 0.2346
0.2464 0.2346 0.2319 0.2337 0.2437 0.2401
0.2255 0.2319 0.2428 0.2456 0.2374 0.2310
0.2392 0.2438 0.2401 0.2447 0.2429 0.2356
0.2356 0.2392 0.2429 0.2393 0.2393 0.2493
0.2375 0.2375 0.2548 0.2466 0.2402 0.2411
0.2338 0.2366 0.2493 0.2420 0.2375 0.2366
0.2302 0.2357 0.2320 0.2439 0.2430 0.2312
0.2503 0.2485 0.2439 0.2476 0.2439 0.2330
0.2294 0.2421 0.2440 0.2367 0.2394 0.2503
0.2403 0.2458 0.2376 0.2294 0.2540 0.2577
0.2504 0.2358 0.2331 0.2395 0.2458 0.2376
0.2413 0.2431 0.2295 0.2504 0.2477 0.2349
0.2441 0.2532 0.2605 0.2477 0.2350 0.2404
0.2395 0.2350 0.2459 0.2350 0.2250 0.2441
0.2377 0.2304 0.2405 0.2396 0.2350 0.2323
0.2378 0.2378 0.2469 0.2505 0.2296 0.2387
0.2360 0.2269 0.2506 0.2515 0.2469 0.2378
0.2242 0.2333 0.2369 0.2451 0.2460 0.2388
0.2451 0.2479 0.2397 0.2415 0.2433 0.2388
0.2415 0.2370 0.2415 0.2461 0.2516 0.2516
0.2279 0.2297 0.2397 0.2370 0.2516 0.2470
0.2370 0.2507 0.2370 0.2370 0.2461 0.2452
0.2553 0.2270 0.2270 0.2380 0.2289 0.2507
0.2435 0.2316 0.2453 0.2426 0.2380 0.2462
0.2417 0.2244 0.2289 0.2435 0.2508 0.2462
0.2390 0.2335 0.2353 0.2444 0.2290 0.2353
0.2444 0.2290 0.2381 0.2436 0.2408 0.2454
0.2463 0.2390 0.2408 0.2390 0.2272 0.2354
0.2472 0.2427 0.2327 0.2409 0.2445 0.2473
0.2536 0.2482 0.2473 0.2409 0.2418 0.2436
0.2464 0.2446 0.2446 0.2400 0.2336 0.2373
0.2382 0.2446 0.2410 0.2410 0.2373 0.2273
0.2237 0.2218 0.2337 0.2346 0.2383 0.2374
0.2310 0.2419 0.2492 0.2438 0.2483 0.2501
0.2401 0.2401 0.2319 0.2338 0.2520 0.2447
0.2502 0.2374 0.2238 0.2493 0.2356 0.2402
0.2511 0.2320 0.2393 0.2356 0.2375 0.2511
0.2393 0.2265 0.2329 0.2320 0.2348 0.2539
0.2503 0.2439 0.2448 0.2475 0.2475 0.2448
0.2375 0.2384 0.2439 0.2366 0.2457 0.2385
0.2321 0.2448 0.2294 0.2203 0.2348 0.2412
0.2421 0.2494 0.2431 0.2358 0.2394 0.2385
0.2385 0.2440 0.2422 0.2376 0.2449 0.2486
0.2376 0.2386 0.2440 0.2395 0.2413 0.2450
0.2477 0.2486 0.2404 0.2459 0.2477 0.2395
0.2541 0.2413 0.2377 0.2523 0.2395 0.2414
0.2414 0.2478 0.2478 0.2377 0.2396 0.2368
0.2460 0.2414 0.2332 0.2451 0.2414 0.2405
0.2469 0.2423 0.2451 0.2451 0.2433 0.2451
0.2415 0.2415 0.2460 0.2551 0.2424 0.2351
0.2433 0.2470 0.2497 0.2415 0.2488 0.2488
0.2406 0.2461 0.2479 0.2506 0.2470 0.2406
0.2406 0.2452 0.2452 0.2443 0.2370 0.2261
0.2434 0.2525 0.2379 0.2398 0.2452 0.2389
0.2398 0.2452 0.2370 0.2352 0.2453 0.2516
0.2507 0.2380 0.2425 0.2498 0.2389 0.2398
0.2398 0.2389 0.2398 0.2426 0.2444 0.2371
0.2408 0.2353 0.2344 0.2508 0.2481 0.2481
0.2463 0.2426 0.2508 0.2454 0.2326 0.2363
0.2481 0.2591 0.2481 0.2381 0.2408 0.2244
0.2418 0.2527 0.2409 0.2554 0.2381 0.2418
0.2618 0.2518 0.2509 0.2509 0.2418 0.2446
0.2528 0.2364 0.2418 0.2355 0.2254 0.2528
0.2464 0.2455 0.2482 0.2473 0.2537 0.2373
0.2492 0.2492 0.2291 0.2474 0.2483 0.2428
0.2538 0.2428 0.2401 0.2547 0.2392 0.2356
0.2483 0.2438 0.2456 0.2374 0.2410 0.2492
0.2429 0.2429 0.2374 0.2338 0.2338 0.2456
0.2475 0.2256 0.2338 0.2466 0.2293 0.2283
0.2384 0.2284 0.2375 0.2457 0.2329 0.2411
0.2430 0.2384 0.2357 0.2375 0.2384 0.2375
0.2457 0.2421 0.2521 0.2485 0.2494 0.2485
0.2403 0.2576 0.2558 0.2549 0.2467 0.2540
0.2576 0.2440 0.2476 0.2412 0.2567 0.2485
0.2422 0.2586 0.2476 0.2431 0.2558 0.2613
0.2449 0.2467 0.2622 0.2650 0.2613 0.2468
0.2522 0.2559 0.2431 0.2559 0.2586 0.2441
0.2413 0.2505 0.2605 0.2413 0.2395 0.2514
0.2541 0.2559 0.2505 0.2541 0.2614 0.2623
0.2459 0.2368 0.2378 0.2359 0.2323 0.2350
0.2487 0.2505 0.2505 0.2569 0.2569 0.2533
0.2615 0.2551 0.2478 0.2560 0.2588 0.2615
0.2497 0.2460 0.2515 0.2561 0.2506 0.2524
0.2588 0.2452 0.2442 0.2525 0.2433 0.2388
0.2570 0.2525 0.2461 0.2452 0.2397 0.2470
0.2470 0.2452 0.2434 0.2416 0.2434 0.2452
0.2489 0.2553 0.2544 0.2425 0.2443 0.2516
0.2453 0.2507 0.2407 0.2389 0.2571 0.2444
0.2526 0.2517 0.2380 0.2499 0.2408 0.2380
0.2462 0.2499 0.2481 0.2508 0.2563 0.2444
0.2490 0.2526 0.2444 0.2444 0.2499 0.2417
0.2481 0.2472 0.2272 0.2363 0.2490 0.2554
0.2481 0.2363 0.2317 0.2245 0.2318 0.2500
0.2527 0.2482 0.2464 0.2482 0.2582 0.2518
0.2464 0.2528 0.2482 0.2482 0.2482 0.2364
0.2491 0.2428 0.2409 0.2564 0.2400 0.2482
0.2519 0.2428 0.2492 0.2528 0.2373 0.2428
0.2528 0.2401 0.2428 0.2446 0.2465 0.2383
0.2529 0.2483 0.2383 0.2483 0.2456 0.2511
0.2401 0.2429 0.2456 0.2465 0.2402 0.2420
0.2575 0.2420 0.2465 0.2548 0.2466 0.2548
0.2457 0.2420 0.2584 0.2466 0.2384 0.2439
0.2493 0.2493 0.2475 0.2448 0.2375 0.2512
0.2521 0.2485 0.2475 0.2439 0.2503 0.2494
0.2530 0.2503 0.2476 0.2476 0.2512 0.2494
0.2439 0.2522 0.2485 0.2449 0.2449 0.2494
0.2485 0.2440 0.2549 0.2558 0.2467 0.2458
0.2458 0.2358 0.2540 0.2522 0.2376 0.2550
0.2486 0.2522 0.2550 0.2477 0.2459 0.2431
0.2413 0.2404 0.2404 0.2286 0.2286 0.2514
0.2459 0.2432 0.2459 0.2377 0.2441 0.2359
0.2423 0.2387 0.2359 0.2496 0.2396 0.2378
0.2305 0.2387 0.2451 0.2341 0.2387 0.2478
0.2405 0.2342 0.2424 0.2442 0.2451 0.2469
0.2351 0.2387 0.2579 0.2442 0.2460 0.2524
0.2297 0.2324 0.2506 0.2597 0.2415 0.2406
0.2552 0.2516 0.2434 0.2370 0.2434 0.2461
0.2488 0.2406 0.2425 0.2571 0.2443 0.2407
0.2480 0.2407 0.2434 0.2507 0.2389 0.2525
0.2589 0.2453 0.2526 0.2589 0.2626 0.2553
0.2507 0.2571 0.2590 0.2389 0.2380 0.2572
0.2553 0.2544 0.2535 0.2435 0.2444 0.2508
0.2517 0.2499 0.2526 0.2563 0.2499 0.2663
0.2618 0.2481 0.2609 0.2609 0.2618 0.2527
0.2518 0.2536 0.2463 0.2491 0.2627 0.2564
0.2527 0.2518 0.2482 0.2618 0.2500 0.2637
0.2555 0.2345 0.2582 0.2518 0.2582 0.2582
0.2482 0.2537 0.2601 0.2564 0.2473 0.2583
0.2519 0.2428 0.2464 0.2437 0.2391 0.2583
0.2546 0.2346 0.2392 0.2510 0.2638 0.2501
0.2529 0.2547 0.2447 0.2574 0.2538 0.2529
0.2656 0.2556 0.2565 0.2529 0.2411 0.2547
0.2538 0.2538 0.2502 0.2429 0.2466 0.2466
0.2520 0.2539 0.2539 0.2438 0.2484 0.2603
0.2511 0.2484 0.2594 0.2594 0.2612 0.2639
0.2576 0.2658 0.2603 0.2548 0.2457 0.2448
0.2530 0.2485 0.2576 0.2494 0.2558 0.2494
0.2467 0.2549 0.2421 0.2522 0.2531 0.2494
0.2458 0.2504 0.2540 0.2476 0.2549 0.2540
0.2458 0.2522 0.2458 0.2431 0.2513 0.2477
0.2559 0.2495 0.2522 0.2595 0.2541 0.2568
0.2559 0.2559 0.2459 0.2541 0.2586 0.2505
0.2641 0.2541 0.2414 0.2514 0.2405 0.2405
0.2569 0.2441 0.2496 0.2514 0.2460 0.2560
0.2523 0.2542 0.2460 0.2496 0.2569 0.2505
0.2524 0.2505 0.2487 0.2506 0.2661 0.2633
0.2497 0.2469 0.2488 0.2533 0.2451 0.2533
0.2670 0.2488 0.2451 0.2552 0.2497 0.2552
0.2588 0.2488 0.2479 0.2552 0.2579 0.2607
0.2579 0.2607 0.2607 0.2671 0.2634 0.2543
0.2580 0.2470 0.2543 0.2461 0.2452 0.2671
0.2598 0.2498 0.2471 0.2680 0.2562 0.2453
0.2671 0.2617 0.2508 0.2453 0.2471 0.2499
0.2626 0.2635 0.2453 0.2535 0.2499 0.2462
0.2517 0.2390 0.2444 0.2453 0.2545 0.2636
0.2545 0.2627 0.2536 0.2499 0.2463 0.2499
0.2490 0.2372 0.2572 0.2563 0.2563 0.2563
0.2591 0.2636 0.2527 0.2618 0.2454 0.2500
0.2664 0.2536 0.2564 0.2527 0.2528 0.2537
0.2491 0.2491 0.2573 0.2592 0.2482 0.2592
0.2510 0.2355 0.2482 0.2482 0.2501 0.2647
0.2537 0.2382 0.2574 0.2492 0.2437 0.2547
0.2428 0.2483 0.2611 0.2683 0.2547 0.2565
0.2583 0.2438 0.2483 0.2565 0.2574 0.2392
0.2629 0.2575 0.2356 0.2593 0.2465 0.2493
0.2493 0.2456 0.2493 0.2511 0.2648 0.2566
0.2484 0.2566 0.2603 0.2566 0.2703 0.2557
0.2430 0.2448 0.2475 0.2494 0.2485 0.2530
0.2393 0.2567 0.2530 0.2503 0.2576 0.2448
0.2594 0.2567 0.2449 0.2357 0.2430 0.2558
0.2449 0.2449 0.2476 0.2440 0.2522 0.2558
0.2476 0.2586 0.2513 0.2422 0.2449 0.2477
0.2440 0.2440 0.2622 0.2486 0.2331 0.2450
0.2477 0.2431 0.2559 0.2532 0.2468 0.2577
0.2587 0.2641 0.2568 0.2496 0.2596 0.2550
0.2432 0.2578 0.2596 0.2459 0.2505 0.2514
0.2496 0.2532 0.2551 0.2432 0.2451 0.2487
0.2405 0.2423 0.2433 0.2496 0.2460 0.2469
0.2542 0.2433 0.2478 0.2488 0.2524 0.2524
0.2315 0.2479 0.2552 0.2488 0.2570 0.2534
0.2588 0.2515 0.2506 0.2506 0.2534 0.2607
0.2424 0.2452 0.2534 0.2507 0.2397 0.2416
0.2589 0.2516 0.2507 0.2634 0.2616 0.2534
0.2498 0.2534 0.2525 0.2507 0.2571 0.2507
0.2444 0.2480 0.2453 0.2407 0.2517 0.2617
0.2517 0.2635 0.2581 0.2499 0.2572 0.2563
0.2599 0.2590 0.2681 0.2608 0.2645 0.2672
0.2517 0.2627 0.2517 0.2463 0.2554 0.2490
0.2463 0.2509 0.2618 0.2490 0.2436 0.2545
0.2463 0.2509 0.2509 0.2409 0.2591 0.2673
0.2518 0.2555 0.2564 0.2591 0.2600 0.2573
0.2582 0.2528 0.2619 0.2555 0.2564 0.2637
0.2428 0.2519 0.2665 0.2646 0.2510 0.2419
0.2537 0.2501 0.2519 0.2528 0.2501 0.2419
0.2364 0.2456 0.2383 0.2456 0.2519 0.2474
0.2583 0.2501 0.2365 0.2547 0.2565 0.2538
0.2565 0.2401 0.2483 0.2529 0.2429 0.2438
0.2493 0.2566 0.2584 0.2520 0.2648 0.2621
0.2520 0.2557 0.2466 0.2630 0.2448 0.2393
0.2348 0.2229 0.2430 0.2302 0.2494 0.2530
0.2512 0.2649 0.2658 0.2731 0.2640 0.2685
0.2640 0.2512 0.2485 0.2439 0.2339 0.2439
0.2294 0.1993 0.2002 0.1838 0.2066 0.2449
0.2586 0.2914 0.3296 0.3406 0.3415 0.3196
0.2686 0.2258 0.1657 0.1347 0.1447 0.1611
0.2067 0.2732 0.3133 0.3097 0.2923 0.2614
0.2149 0.1858 0.1931 0.2167 0.2632 0.3170
0.3389 0.3471 0.3006 0.1967 0.1020 0.0309
0.0173 0.0892 0.2113 0.3343 0.4400 0.5211
0.5403 0.4564 0.3171 0.1594 0.0237 -0.0091
0.0674 0.2159 0.3936 0.5430 0.6387 0.6569
0.5686 0.4000 0.2032 0.0092 -0.1248 -0.1412
-0.0610 0.0684 0.2005 0.3062 0.3791 0.3982
0.4019 0.3937 0.3700 0.3964 0.4402 0.4566
0.4329 0.3254 0.1778 0.0220 -0.1010 -0.1475
-0.1201 0.0257 0.2498 0.4894 0.6635 0.7318
0.7427 0.6799 0.5878 0.4803 0.3473 0.2508
0.2016 0.2280 0.2918 0.2890 0.2207 0.1178
0.0166 -0.0143 0.0467 0.1506 0.2198 0.2472
0.3037 0.3775 0.4358 0.4504 0.4203 0.3848
0.3128 0.1843 0.0622 -0.0115 -0.0425 0.0030
0.0768 0.1333 0.2281 0.3256 0.3548 0.3566
0.3192 0.1543 -0.0352 -0.1144 -0.0288 0.1908
0.4441 0.6227 0.7019 0.7721 0.8195 0.6855
0.2737 -0.2638 -0.7613 -0.9900 -0.8205 -0.4980
-0.1745 0.0351 0.1571 0.3412 0.6318 0.9899
1.1621 1.0947 0.9380 0.7339 0.6091 0.6127
0.5927 0.4943 0.2939 -0.0797 -0.5516 -0.9452
-1.0363 -0.7621 -0.2300 0.3185 0.5554 0.4479
0.1928 0.0917 0.2247 0.4014 0.4898 0.4015
0.1901 0.0461 0.1017 0.2384 0.3222 0.2284
-0.0860 -0.3001 -0.2108 0.1236 0.5181 0.8543
1.0821 1.0548 0.8480 0.6348 0.5546 0.5355
0.4562 0.4061 0.4152 0.6129 0.9756 1.2790
1.4375 1.3437 1.0056 0.5546 0.1465 -0.0704
-0.2699 -0.6516 -1.0589 -1.2530 -1.0489 -0.4703
0.1994 0.7078 0.9492 0.9875 1.0048 0.9838
0.8782 0.8126 0.7770 0.7470 0.5967 0.3042
-0.0867 -0.5486 -0.8010 -0.7964 -0.6306 -0.4675
-0.3818 -0.1550 0.2377 0.6404 0.9284 1.1078
1.2053 1.1662 0.9912 0.7644 0.5275 0.3362
0.3261 0.3717 0.3280 0.2350 0.0273 -0.2087
-0.3599 -0.4182 -0.3298 -0.0966 0.1139 -0.0364
-0.3981 -0.5339 -0.3271 0.1950 0.6907 0.9112
0.9267 0.7271 0.4447 0.2360 0.0784 0.0019
-0.0282 -0.1767 -0.4755 -0.6914 -0.7251 -0.6750
-0.3944 0.0229 0.2689 0.4867 0.8657 1.2265
1.4798 1.6502 1.4907 0.9550 0.3063 -0.3133
-0.8426 -1.1260 -1.1588 -1.0649 -0.6749 -0.0426
0.4922 0.8138 0.8849 0.6043 0.0239 -0.5045
-0.7150 -0.5492 -0.1528 0.3036 0.7638 1.0763
1.2403 1.3132 1.2612 1.0936 0.8831 0.7474
0.7000 0.6809 0.5861 0.3948 0.1479 -0.1837
-0.5099 -0.6776 -0.5691 -0.2338 0.1379 0.5115
0.7757 0.7055 0.1197 -0.7459 -1.4091 -1.6998
-1.4601 -0.9107 -0.5372 -0.2456 0.2108 0.6591
0.8040 0.6145 0.2664 -0.1135 -0.1408 0.4651
1.2851 1.9092 2.0951 1.7589 0.9781 0.0961
-0.4332 -0.5872 -0.4560 -0.0879 0.4141 0.9043
1.3125 1.4282 1.0747 0.5554 0.3103 0.4624
0.7913 1.2369 1.5193 1.2888 0.7886 0.3030
-0.0113 -0.1234 0.0853 0.7167 1.4210 1.7809
1.6451 0.9454 -0.0632 -0.8859 -1.3643 -1.4253
-1.1857 -0.8978 -0.6281 -0.5196 -0.5251 -0.3310
0.1218 0.6502 1.1049 1.3254 1.2233 0.9282
0.6876 0.5783 0.5756 0.3596 -0.3674 -1.4835
-2.6106 -3.2483 -3.3039 -2.7882 -1.9309 -0.6471
1.1241 2.6739 3.8875 4.5335 4.1845 3.1741
1.9997 0.7369 -0.6015 -1.4953 -1.9016 -2.2470
-2.5121 -2.6087 -2.4474 -1.5518 0.1147 1.7711
2.9592 3.5304 3.4311 2.8754 1.9278 0.9383
0.1767 -0.6014 -1.1417 -1.0351 -0.3919 0.1411
0.0938 -0.3262 -0.8966 -1.3275 -1.5444 -1.4223
-0.9011 -0.4119 -0.0064 0.4583 1.0669 1.6892
1.9425 1.5507 0.4829 -0.5886 -0.8054 -0.2451
0.2679 0.3636 0.3335 0.3217 0.3381 0.3800
0.4711 0.7800 1.1198 1.0323 0.3855 -0.5767
-1.3119 -1.2263 -0.5019 0.4074 1.1290 1.5262
1.9335 2.2688 2.6797 3.0159 2.8227 2.1968
1.2183 0.1942 -0.7515 -1.5223 -1.6845 -1.0941
-0.2969 0.2380 0.6817 0.9796 0.7154 -0.0044
-0.7141 -1.3309 -1.6480 -1.7382 -1.8566 -1.7983
-1.5268 -1.1050 -0.6221 0.0941 1.2685 2.2771
2.3937 1.9555 1.3168 0.2973 -0.6995 -1.1240
-1.1988 -0.9801 -0.1783 0.6262 1.2212 1.9883
2.6981 2.9441 2.7063 2.2079 1.2166 0.2873
0.1707 0.3702 0.5579 0.7693 0.8121 0.4951
-0.0680 -0.7231 -1.2679 -1.2734 -0.3194 1.2696
2.4622 2.7419 2.1597 1.0691 0.0259 -0.5435
-1.2259 -2.2391 -2.6810 -2.4259 -1.1457 0.9170
2.4723 2.6490 1.1858 -0.8496 -2.2308 -2.3794
-1.5512 -0.7257 -0.3093 -0.4788 -1.2377 -1.9466
-1.9684 -1.5402 -0.9370 0.2164 1.5403 2.0888
1.6833 0.8342 0.0242 -0.6190 -1.0436 -1.0372
-0.5880 0.2229 1.2925 1.9604 1.9677 1.2105
-0.3165 -1.6959 -2.1259 -1.5629 -0.3985 1.2479
2.9982 4.4742 5.3762 5.3525 4.8596 4.1881
3.1376 1.7773 0.6931 -0.1032 -1.0070 -1.6402
-1.9828 -2.2607 -1.7386 -0.5897 0.4116 1.1587
1.1560 0.5957 0.3770 0.7742 1.0959 1.1086
1.0385 0.9018 0.8936 0.7970 0.7889 0.7515
0.2504 -0.7272 -2.2333 -3.6464 -4.1502 -3.5817
-2.5804 -1.9381 -1.5873 -1.2201 -0.8802 -0.2771
0.9620 2.2467 2.6002 2.0454 1.1570 0.3197
0.2377 1.1835 2.6130 3.7100 4.0881 3.8467
2.9884 2.1538 1.4778 0.5403 -0.7380 -2.5593
-4.1583 -4.6193 -4.0390 -3.0313 -2.4208 -2.1939
-1.9807 -1.4596 0.0383 1.8432 2.8390 3.1762
2.9265 1.7876 0.1504 -1.1589 -1.6491 -1.4067
-1.1470 -1.2901 -1.5953 -1.4586 -0.6842 -0.1676
-0.4136 -0.7780 -0.9921 -1.1360 -0.6696 0.9039
3.1261 4.5065 4.2450 2.4200 -0.2759 -2.1291
-2.6238 -2.0389 -1.0458 -0.9128 -1.3583 -1.4403
-0.4463 1.6538 3.9125 5.3575 5.4286 5.0405
5.1753 5.6254 5.9407 5.7685 4.8883 3.8324
3.4697 3.0679 2.1104 1.3514 1.3779 1.9701
2.8985 3.6575 2.2507 -0.8735 -3.4865 -4.7849
-5.3124 -5.5092 -4.5780 -3.2833 -1.9285 -0.0653
1.6248 2.4521 1.9975 1.2640 0.3702 -0.3905
-0.0024 0.6299 0.5252 -0.6684 -1.8884 -2.0888
-1.4829 -0.2456 0.8550 1.3124 1.9401 3.0144
3.2458 2.0049 -0.0834 -2.1808 -3.3005 -2.7803
-1.5849 -0.6774 0.1171 0.5617 0.9990 2.0823
3.2176 2.3967 0.3613 -0.3075 0.3221 1.4756
1.9803 2.3174 2.2145 0.4451 -0.9361 -1.1347
-1.0974 -0.8878 -0.1972 0.6110 0.8643 1.0839
1.3535 1.2041 1.1841 0.2411 -2.3783 -4.4447
-4.6379 -3.6156 -2.5997 -1.9966 -2.0795 -2.5633
-1.9027 -0.2928 1.2880 2.6629 2.9818 1.1924
-2.4849 -5.5836 -6.1175 -5.5289 -5.2419 -5.6601
-6.5129 -6.7698 -5.1425 -0.9205 3.2051 6.0541
7.8053 7.3843 6.1288 5.3189 5.3617 5.4883
5.0200 4.6519 3.8866 2.7395 1.9551 2.1118
2.5528 2.0899 1.2207 0.3807 0.2504 0.6859
0.0135 -1.9444 -4.0701 -5.5816 -6.6986 -7.8338
-9.1285 -9.6096 -7.8229 -3.5944 1.3310 4.8388
7.6132 9.9274 10.7009 9.2213 4.2302 -2.6004
-7.0712 -8.4697 -8.0315 -6.2038 -5.1378 -6.3404
-8.3759 -8.5298 -5.7090 -1.7849 2.3388 5.9131
7.7280 8.6884 8.6947 6.8971 3.5306 -0.9248
-5.1432 -7.5276 -7.2396 -4.9728 -1.8932 1.6173
4.1948 5.3610 6.4626 6.7869 4.7779 1.6337
-0.2204 -0.5666 -0.1484 1.7203 4.5420 6.7533
8.4816 8.8780 7.8047 6.4836 4.0364 0.8292
-1.6836 -3.2562 -4.7322 -6.1781 -7.1302 -8.7647
-10.5095 -10.6480 -8.4959 -4.9863 -1.6699 1.5436
4.3690 6.4162 7.5515 7.4841 5.7275 2.5686
-0.5401 -3.5467 -5.3771 -4.2975 -2.2347 -1.6844
-2.1718 -2.5982 -3.1950 -3.1658 -1.7873 -0.1710
0.8449 0.7729 0.5060 0.5233 0.4996 1.4453
2.8639 3.0352 1.9938 1.4207 1.6576 2.0840
2.6088 2.0786 0.7693 0.7511 1.6276 1.6258
1.3525 1.8700 1.6267 0.4496 -0.2702 -1.5585
-3.9283 -5.8744 -5.7441 -3.5356 -1.0428 0.5079
0.5498 -0.5754 -1.3936 -1.1138 -0.2929 0.0642
0.1809 0.6592 1.8737 3.7998 5.3596 5.7086
4.1196 1.0054 -2.2518 -4.8220 -6.5076 -7.3713
-7.2383 -5.1773 -0.3457 5.6111 10.7152 13.3620
11.8559 6.7792 0.6720 -3.8425 -5.9590 -5.4260
-3.2676 -2.2681 -2.6808 -3.8944 -4.4520 -3.2056
-1.3615 0.8097 2.8232 4.4268 5.5967 6.2763
7.0125 7.1446 6.1105 4.0551 0.9774 -1.9737
-3.3960 -3.5463 -3.6183 -4.4893 -5.3020 -5.1234
-4.2342 -2.9941 -2.5012 -3.2055 -4.6387 -6.1046
-6.9729 -7.0504 -5.8149 -4.9557 -5.3375 -4.8436
-2.3299 2.0243 6.3721 9.3141 10.2717 8.7547
5.8100 2.7897 1.0003 0.6905 0.7506 0.5356
-0.2771 -1.1754 -1.8287 -2.3262 -0.9495 2.5811
5.9203 7.2751 6.5535 5.2625 5.0147 6.0916
7.1476 6.7649 5.0484 3.1588 1.7056 0.9056
0.7225 -0.0620 -1.4860 -2.2960 -2.2723 -1.9352
-1.1589 0.2542 1.5471 2.3215 2.3853 2.5247
3.3720 4.1647 4.2349 2.6805 -0.7033 -5.0338
-8.8414 -11.6722 -13.2083 -13.1655 -12.7427 -11.5874
-9.0190 -6.1007 -4.2457 -3.9487 -3.9760 -2.7505
0.2452 4.4208 8.3504 11.1767 12.5352 12.5078
12.0168 11.1148 9.2452 6.2130 3.1362 0.9559
-1.0121 -2.6667 -3.1113 -1.7947 0.5532 1.8835
1.8051 1.6776 1.5227 1.1081 0.6580 -0.0800
-1.4484 -3.4802 -5.3316 -6.2636 -5.5402 -3.1850
-0.9455 0.0303 0.2353 0.2800 0.0914 -0.3478
-0.4243 0.0231 -0.4325 -2.3121 -4.4696 -5.9656
-6.4294 -6.2326 -5.5028 -4.0860 -1.7044 1.3469
4.2188 6.0911 6.4628 5.3322 2.1333 -1.7909
-4.7319 -6.4448 -6.4904 -5.3980 -3.8035 -2.0615
-0.4388 1.2158 2.9533 4.4484 4.7591 3.7433
2.5315 2.0450 2.0832 1.7379 0.6400 -1.0747
-2.1589 -0.9006 2.6718 7.7267 13.6908 18.7876
20.8503 19.5383 15.4137 9.4569 3.0099 -2.1743
-4.5815 -4.2753 -2.2016 0.1991 1.5713 1.3344
0.0643 -1.0299 -1.3151 -0.6545 0.8005 2.4305
3.4336 3.2815 1.5813 -1.5091 -5.2647 -8.8682
-11.3008 -11.9359 -11.4621 -10.9036 -10.1309 -8.6066
-5.8733 -2.3282 0.2858 1.1532 1.4994 2.3750
3.6533 4.5371 3.6916 1.5997 -0.5551 -2.2771
-2.8429 -2.3427 -0.9287 0.9829 2.7176 3.5540
3.0247 1.8967 1.5441 2.7468 4.2465 4.6939
4.1727 3.1860 2.4179 1.9742 0.7305 -1.7823
-4.3553 -6.4144 -7.5122 -6.8417 -5.2108 -3.8086
-2.4565 -0.6953 1.8011 4.6447 7.0419 8.2855
7.5931 5.8693 3.8102 2.0618 1.6900 1.9023
1.6263 0.9083 0.5521 1.2764 2.5857 3.2535
3.1150 2.0910 1.1953 1.9989 3.7155 4.7432
4.6120 3.8622 2.5074 0.6086 -0.9649 -1.5935
-1.0651 0.6132 2.6605 4.5638 6.4179 7.5003
6.6675 3.7019 -0.7507 -4.8589 -6.6228 -6.1445
-3.8065 -0.0983 3.3894 5.2453 5.6162 5.5333
5.1861 4.6486 4.0281 2.8865 1.4953 0.9012
1.0725 1.1928 0.4684 -1.2882 -3.8712 -7.0591
-9.5118 -10.3601 -9.6430 -7.7516 -5.7098 -4.2128
-3.1605 -1.9906 -0.8699 -0.1838 -0.1857 -0.9792
-1.9532 -2.5436 -2.5764 -1.7874 0.0904 2.1896
3.1645 2.2516 -0.0389 -1.6817 -1.3363 1.0070
4.2570 6.7826 8.3214 9.0640 9.1569 8.8909
7.9771 6.3908 3.8024 1.0144 -0.4908 -0.8652
-0.2329 0.9889 2.2244 2.6754 1.8481 0.2217
-2.1699 -4.9142 -7.2940 -9.3613 -11.6482 -13.7683
-14.4644 -12.6167 -8.4802 -3.1612 2.4513 6.2133
7.6792 7.7758 6.8419 6.3181 6.1185 5.2667
3.3643 0.7667 -1.3863 -2.2746 -0.7202 1.5694
1.8464 0.3440 -1.9949 -3.5282 -2.9716 -0.5608
2.0040 3.5165 4.7775 5.8125 6.3956 7.2438
8.2953 9.0624 9.8815 10.8828 11.1908 10.3471
9.3422 8.5039 6.9778 4.8832 2.8205 1.0110
-0.4377 -0.8650 0.3915 2.9007 5.7169 7.6512
7.4644 5.1147 1.6962 -1.3068 -2.4739 -2.2498
-1.8079 -1.6412 -2.2872 -3.7176 -5.1881 -6.4290
-7.9889 -9.6790 -11.2670 -12.0324 -11.0520 -9.1997
-7.4567 -6.3406 -6.2322 -6.9647 -7.7000 -7.8968
-7.2800 -5.5898 -3.6747 -2.1859 -0.8639 0.3734
1.2608 2.0763 3.5668 5.2879 6.2036 6.1726
5.2770 3.9723 3.6124 4.7823 6.2100 6.9644
7.4109 7.4482 6.4961 4.6438 2.6549 1.1370
0.9557 1.6299 1.4422 0.5885 -0.3545 -0.8519
-0.6633 -0.0338 0.8901 1.4304 1.8696 2.2368
2.2322 1.9580 1.3302 0.3972 -0.8273 -2.1192
-2.6832 -1.6345 -0.4109 -0.2496 -0.1940 1.0159
3.6663 6.2639 7.7782 8.2410 8.4233 8.3886
7.6352 6.1072 3.4495 -0.0573 -3.6116 -6.2437
-7.4710 -6.9107 -5.1194 -3.2289 -1.2745 1.2064
4.6131 8.3741 11.5585 12.7693 11.5175 8.8142
5.4121 2.0702 -0.2969 -1.5077 -2.2548 -2.7204
-3.4220 -5.0783 -6.8350 -7.5611 -7.3880 -6.7001
-5.0473 -3.0711 -1.8411 -1.2699 -1.2863 -1.7527
-2.5800 -3.8492 -5.4108 -6.6791 -6.5433 -4.3749
-1.6179 -0.0662 -0.3642 -2.6474 -6.2727 -10.2852
-13.0641 -13.7347 -12.9010 -11.1945 -9.3951 -7.7651
-6.2845 -5.3880 -5.1511 -4.5006 -2.7822 -0.6411
1.4599 3.4243 5.2383 6.7517 8.4372 10.8307
12.9126 13.1905 11.3938 8.7470 6.3891 5.0179
4.8147 4.6990 3.9738 2.6508 1.5721 2.0459
4.1059 7.1709 10.0509 11.5925 11.5697 10.8755
10.4700 9.5544 7.3094 3.7378 -0.6646 -4.6635
-7.1781 -8.0628 -8.3544 -9.1033 -10.7797 -13.3226
-14.8178 -13.5923 -10.6011 -7.8496 -6.5722 -6.1777
-5.7039 -4.4721 -1.8317 1.5522 4.4614 5.7442
5.3297 3.6396 0.6001 -2.7364 -5.1608 -5.8487
-5.0570 -3.5281 -2.0658 -1.6221 -1.2248 -0.5579
-0.2991 -0.2454 0.0353 0.6220 0.5792 -0.4440
-1.9810 -3.6265 -4.6378 -4.7462 -3.8387 -2.1559
-0.5760 0.8234 1.9468 3.0602 4.8114 6.8805
8.8849 10.1532 10.0257 8.2372 5.0419 1.4722
-1.3322 -2.6041 -3.3394 -4.6359 -5.5971 -5.0951
-3.2701 -1.1244 0.0400 -0.4794 -1.8387 -3.0523
-3.7047 -3.9115 -4.1766 -4.7852 -6.2567 -8.8297
-12.0231 -15.4434 -18.6906 -21.0385 -21.5159 -19.7903
-16.8948 -13.3314 -8.7248 -3.4741 1.7147 6.2757
9.4537 11.0754 11.4654 10.7320 9.1484 6.6848
4.1191 2.3334 0.6751 -0.2624 0.4210 2.1475
4.3132 6.2630 7.0967 6.2411 3.9889 1.2246
-1.7055 -4.4726 -6.8506 -8.7338 -9.0591 -7.6587
-5.2607 -2.8471 -1.0358 0.3418 1.9235 4.5584
7.6589 10.4041 11.7243 11.0674 9.6497 8.1992
6.7906 6.1374 6.4964 6.5456 6.4317 6.8426
7.4740 9.1769 11.9011 14.6736 16.8639 18.1723
18.8447 18.7982 18.6761 18.6197 17.4252 14.3912
9.4903 4.0738 -0.5956 -4.0405 -6.1671 -7.1456
-6.9852 -7.3087 -8.9323 -10.8848 -11.8141 -10.3080
-6.5060 -1.9267 1.9938 4.8556 6.7753 8.8399
11.4557 13.8902 15.8309 17.1392 17.2577 14.8387
9.7948 3.8398 -0.5591 -2.8122 -4.0331 -4.7684
-5.9064 -7.6949 -9.7011 -11.8741 -14.0972 -15.8274
-16.5299 -16.1408 -14.4653 -12.0654 -10.2933 -9.3612
-9.0205 -9.2984 -10.0555 -11.0850 -11.8813 -12.2239
-11.2991 -9.4122 -8.2232 -7.5362 -7.6191 -8.6851
-9.9862 -10.7916 -10.3297 -9.4796 -9.2536 -9.5270
-9.9935 -9.5406 -7.4569 -4.4147 -1.4326 0.5836
1.5339 0.5855 -2.1041 -5.5554 -10.4508 -15.3352
-18.4412 -19.3159 -18.4102 -16.9242 -14.2647 -9.8895
-3.6147 3.5712 10.3399 16.5099 21.5593 25.1035
26.4511 26.3408 24.7856 21.0254 16.4052 10.6078
4.4824 -0.7492 -5.5790 -9.0193 -11.2925 -12.6410
-13.9603 -16.2462 -18.7126 -21.7375 -24.8316 -27.1112
-27.1977 -25.8028 -23.2991 -16.3947 -7.6234 0.2139
7.3898 12.8283 16.5629 18.0034 18.6703 21.4155
25.7205 30.2560 34.0663 35.8593 34.8854 31.4022
26.5451 21.2461 15.9944 11.3915 7.5894 4.8898
3.5113 2.5301 0.6413 -2.4501 -6.4444 -11.6641
-17.6337 -22.7924 -25.4455 -24.5845 -20.8626 -15.7140
-10.9962 -7.5376 -4.0162 0.4592 5.7136 10.7720
14.1495 15.5672 15.2511 14.2744 13.2712 11.6659
9.5794 6.6484 3.9078 2.5712 2.0555 2.4482
4.0044 6.4507 8.7859 10.6218 12.3283 14.3482
17.2419 20.1775 22.5282 24.9654 27.2213 28.5661
28.1753 25.7517 22.3250 18.9348 16.6917 15.3952
14.3301 13.0390 10.3084 6.0162 0.6452 -4.2802
-8.1333 -12.3117 -15.9397 -17.9314 -19.4365 -21.6523
-24.0704 -26.3527 -29.1298 -31.8431 -34.0006 -34.8543
-33.4712 -29.4232 -21.7635 -11.6428 -1.7609 7.4486
15.9802 22.9119 28.2492 31.6003 32.7465 32.2271
30.5480 29.1239 28.4142 27.2835 24.2550 18.3564
10.1291 1.9109 -5.1821 -11.8077 -17.9713 -23.4207
-28.3179 -34.0743 -39.5172 -43.5471 -47.7017 -51.2450
-53.8727 -55.6648 -56.3545 -56.4930 -56.3527 -55.9983
-55.0926 -53.4298 -51.1120 -48.9007 -46.5874 -43.3056
-37.7751 -27.1324 -13.3036 -1.1485 8.9430 17.5676
24.7407 30.1764 32.9927 33.9092 34.4404 35.6577
38.0010 41.3640 44.5565 46.2011 45.7136 44.2932
41.6000 36.5105 32.6775 31.3026 31.2580 32.5590
34.8213 37.9027 41.6456 45.9533 49.1112 50.5754
50.5817 49.0811 46.5838 43.7156 41.9171 40.9796
40.3536 39.4972 37.4181 34.4287 31.0148 27.5116
24.0102 21.4345 20.1225 19.3645 18.8761 18.1618
18.1837 19.2342 21.2769 23.8809 25.4051 26.6670
27.5125 28.0483 29.2473 30.4609 31.3010 29.6218
24.1205 14.0063 0.0062 -13.8072 -24.2266 -30.2700
-34.0848 -34.5476 -31.5546 -28.5635 -25.8702 -24.3869
-23.6845 -23.6125 -24.7386 -26.1599 -28.0678 -29.7287
-30.7847 -31.5400 -31.8990 -32.1167 -33.1508 -35.9889
-39.6051 -42.8223 -45.1501 -46.7819 -48.3372 -49.7640
-51.3940 -52.9574 -53.8139 -53.1251 -49.2647 -40.7148
-28.1943 -16.4638 -6.9181 2.0691 10.2427 18.2778
23.3508 27.1729 32.8929 37.4357 42.0031 47.1682
52.5702 58.1106 62.4265 62.9887 59.3880 55.5313
51.7593 48.4921 46.5441 44.5807 42.6828 41.1212
39.9650 39.2461 37.7947 34.1740 26.7548 16.2151
6.2221 -1.9970 -8.3165 -12.4292 -15.1307 -18.0954
-23.1275 -28.9149 -35.3573 -42.0376 -47.4505 -54.6200
-61.0005 -63.4158 -62.2669 -56.2427 -48.9128 -42.9596
-37.7662 -32.4809 -27.7732 -23.5812 -18.1564 -11.4880
-4.3740 0.2900 3.7977 6.8017 7.7565 9.9213
13.3680 15.7889 16.6836 16.3210 14.6464 10.6202
3.6192 -6.6800 -18.1390 -27.6473 -34.6346 -39.4371
-43.2501 -46.5447 -49.3035 -52.0878 -54.3146 -55.2676
-54.7610 -53.0336 -50.2191 -46.6412 -43.4068 -42.5667
-45.7064 -52.3238 -60.4673 -68.1406 -73.9808 -77.8430
-80.3058 -81.4383 -81.5768 -80.9335 -79.9996 -79.0138
-78.2931 -77.6754 -76.4116 -73.2783 -61.7765 -39.3222
-14.2858 5.6147 19.7005 27.1707 27.8194 26.5101
23.1490 15.8183 6.2953 -4.5277 -15.3362 -24.7699
-30.5554 -33.3844 -36.0539 -37.9955 -36.4475 -28.3760
-17.2213 -7.3294 -0.4769 0.1682 -3.8963 -9.6426
-14.2802 -15.1986 -12.6065 -7.5261 -3.3733 -1.3679
0.2165 1.3244 2.8624 5.9028 11.9425 21.5985
31.8111 39.7952 45.7192 50.7103 55.0927 60.3726
66.5545 74.5240 82.6502 89.6284 98.3623 105.4525
110.3552 113.9705 118.1197 121.3624 121.5200 121.0745
115.4119 109.0688 106.0822 103.1548 100.3385 97.2080
95.5707 94.1876 91.4006 87.6905 82.6175 76.2242
69.9977 65.5433 62.7425 60.2907 56.9943 51.8028
41.9610 26.9496 9.8116 -6.9027 -22.0964 -35.6263
-46.9168 -56.3286 -63.3970 -67.5808 -69.5779 -67.4742
-62.1934 -51.6709 -35.6946 -21.5624 -8.2383 2.4654
7.3426 9.0646 7.8701 5.1705 1.3566 -2.8345
-6.6830 -10.4523 -12.9587 -13.7432 -11.9547 -8.2957
-4.6785 -3.0495 -4.5510 -8.0961 -13.7942 -20.8890
-28.1824 -35.9378 -42.6399 -46.7508 -48.6605 -48.4801
-47.7148 -47.7612 -49.3001 -52.0726 -51.7792 -46.3299
-29.4124 -2.0863 21.5661 36.6012 41.6005 40.6083
36.9411 29.9501 25.4693 21.4149 19.0004 21.8003
22.6713 22.4772 20.9530 16.1860 10.5262 2.2570
-4.9563 -11.6265 -18.1191 -23.3096 -32.8973 -43.1035
-51.9376 -61.2209 -67.7763 -72.1688 -73.8188 -72.8539
-71.0080 -68.3412 -67.3937 -67.2032 -65.9532 -63.1989
-57.9144 -51.5312 -43.5745 -32.9127 -15.4257 6.9812
23.0259 31.3179 34.6270 34.5906 33.9300 32.0668
29.9157 27.2115 23.4842 19.2931 12.6675 6.1567
0.3274 -5.8207 -10.1813 -14.4116 -18.2774 -21.5601
-23.6812 -22.0312 -17.3089 -9.8168 -0.7750 8.3917
17.3734 24.6560 28.9610 28.9546 27.4877 26.8035
25.1134 23.8041 23.2702 22.8730 24.0401 28.2494
34.6882 42.0045 47.5048 51.8681 59.0769 65.0647
69.1464 73.3157 75.6090 76.4372 75.3165 72.4994
68.4349 62.5592 55.6539 48.4780 42.1713 37.2294
34.4205 34.8815 37.9146 42.0802 46.1456 49.0083
49.5367 46.7241 39.1273 26.8729 13.0586 0.8707
-8.6240 -15.2805 -19.3605 -21.1563 -21.3066 -20.8000
-20.5640 -22.1393 -25.4430 -30.5999 -36.4702 -42.6001
-47.6486 -51.3805 -59.6351 -67.5390 -72.8626 -79.9592
-86.2623 -92.9580 -99.7249 -105.1031 -107.7882 -106.0315
-97.4744 -78.1671 -54.7515 -38.7470 -31.7751 -28.4678
-27.3471 -28.2901 -28.8951 -28.5398 -26.7431 -22.3415
-15.0435 -7.6161 -3.3895 -2.9758 -5.6444 -9.4775
-12.5461 -13.1893 -10.5371 -5.7200 -0.7609 2.5337
3.8576 4.5391 6.0725 9.5648 14.7490 21.1842
29.1327 38.2702 48.2997 58.3238 68.0152 76.7619
83.7319 89.2222 92.6362 94.4766 94.7855 93.6120
92.4285 90.5434 88.4834 87.9950 87.9713 87.6087
86.2102 82.1867 74.5972 62.3582 46.0548 28.0632
12.1534 1.0506 -5.9331 -10.8011 -15.5189 -19.8120
-22.9818 -25.8417 -29.5764 -34.2658 -38.3184 -41.3998
-42.6353 -42.5952 -40.7666 -35.7154 -32.3106 -27.9372
-20.8379 -16.6959 -15.0149 -16.2513 -20.5408 -26.3528
-32.6622 -37.6542 -40.7000 -41.0034 -37.3298 -30.2386
-22.1097 -15.1552 -10.9504 -10.7901 -15.1825 -21.7006
-27.8005 -31.3775 -31.1023 -26.8429 -19.3572 -11.7203
-4.9945 0.0485 3.8297 8.1246 12.7813 18.4257
24.3807 29.9886 34.9568 37.2656 37.4888 37.7294
39.2400 42.1410 44.6720 46.2000 45.7545 44.4561
44.7076 44.7759 44.7860 45.5021 46.1371 45.3582
41.5561 36.2844 31.4082 27.4995 24.4928 21.9199
19.2813 14.7877 7.6054 -1.2988 -10.6742 -19.7251
-27.5907 -33.7143 -39.8643 -46.0862 -53.3305 -60.2048
-64.7458 -71.5955 -76.1210 -76.1948 -76.8116 -76.1319
-74.6787 -72.7334 -69.4243 -65.9374 -62.8224 -59.8813
-57.8932 -57.4413 -57.6582 -58.0244 -57.9032 -56.8263
-55.1553 -53.3404 -50.8941 -48.5206 -45.0857 -40.5876
-36.6880 -32.5698 -29.0985 -25.1843 -21.1700 -18.4421
-16.1233 -14.7931 -14.7384 -17.0472 -20.9895 -25.9013
-32.1843 -38.6760 -44.9198 -48.6217 -48.1060 -43.6834
-36.0201 -26.8698 -16.8722 -6.8536 2.4424 10.8055
17.5897 23.3524 28.1877 32.7761 37.6086 41.8361
45.4150 48.0536 50.5710 52.9171 55.8299 60.2743
63.7383 66.1245 68.4816 70.7457 72.5625 74.4530
77.4888 80.3680 82.2940 82.9956 82.3177 80.7169
78.0146 73.9556 67.5933 58.9432 49.6180 40.9734
34.4526 30.4201 27.9728 27.3141 27.8526 28.5532
29.1573 28.9578 28.7291 27.8635 26.4358 25.0282
23.4683 22.7841 21.7819 22.2958 25.0601 27.7005
30.4885 32.0829 31.7741 31.0051 29.4143 26.3466
22.1473 17.0022 10.9252 4.0736 -3.4248 -12.3173
-22.0880 -30.0766 -35.1797 -37.5778 -36.2475 -31.8523
-25.7433 -18.7524 -12.0165 -5.3345 0.8092 5.7966
9.0903 10.2465 9.2971 6.3697 1.9444 -3.9140
-10.5542 -17.3711 -23.3443 -27.8397 -30.9238 -32.7706
-33.9196 -34.4717 -34.0170 -31.4295 -25.6558 -13.4651
2.6843 15.9638 25.8921 32.8175 36.7963 37.6865
36.5676 35.2082 34.4037 34.6233 35.7212 38.5830
41.9842 44.4287 44.1991 41.0667 37.1216 32.2800
27.7490 24.8189 22.5530 19.2940 14.4368 9.5178
5.8806 5.1608 7.4377 10.5719 13.2488 14.2619
13.4747 11.7710 10.2412 9.9779 10.2339 10.3487
10.4298 10.4708 10.2349 8.9484 7.1617 3.2421
-2.9370 -7.8470 -12.4472 -16.9453 -20.4030 -23.9754
-27.5907 -31.4739 -35.7297 -39.7039 -42.0910 -41.3011
-36.8612 -29.5159 -21.6402 -15.7125 -13.5086 -15.5531
-20.7264 -27.6116 -34.6827 -41.5288 -48.0979 -54.4620
-60.8689 -66.7000 -72.0227 -76.9218 -80.8596 -83.7514
-85.3286 -86.0256 -86.4602 -86.3627 -86.1859 -85.8907
-85.0862 -83.8790 -82.4093 -81.4071 -80.2564 -78.5735
-76.4707 -73.2517 -69.9280 -67.0999 -65.0116 -63.6204
-62.1152 -59.3609 -53.5808 -44.7413 -33.7405 -23.9734
-17.3232 -13.1931 -12.0233 -11.0220 -10.3313 -10.7504
-10.7422 -11.6460 -12.2984 -13.0874 -14.5871 -14.8458
-15.3998 -16.4330 -18.2051 -21.3839 -25.7773 -31.9419
-38.7925 -46.5306 -54.2431 -60.8058 -66.1832 -68.5776
-68.9684 -68.4509 -67.2519 -65.5919 -61.9784 -55.9140
-46.6134 -34.6560 -22.1547 -10.1790 0.7953 10.5387
18.4553 25.7533 32.3270 38.5235 44.9760 50.7861
57.8117 64.2660 71.5904 81.2500 88.8241 95.0734
99.3210 99.8922 98.5684 95.6219 90.5734 83.9478
75.4864 65.4186 54.6876 43.9091 34.4709 27.1392
22.3869 20.2230 20.1775 22.3505 26.1334 29.9737
32.8948 35.0340 37.4585 40.4679 43.2869 45.3196
46.0002 45.5310 44.4677 43.3471 42.9279 42.9280
43.3981 44.7429 46.4166 48.5759 50.7152 52.0300
52.1284 50.2460 46.1214 39.5059 30.8321 20.9320
11.0720 2.4993 -3.6807 -6.7794 -7.0609 -4.3449
0.6680 7.3774 14.7511 21.1553 25.4329 25.2334
20.9895 16.1260 12.9398 11.7545 12.2884 14.7575
18.9705 23.7675 27.8684 31.1320 33.0262 34.3181
34.8302 32.0805 25.7838 17.7633 10.2731 4.0875
-0.3186 -3.2351 -4.3958 -4.0277 -3.4901 -2.7066
-2.3267 -2.4606 -3.2879 -4.0441 -3.3298 -1.8109
-0.2320 0.1480 -1.5904 -5.2221 -10.3444 -15.9942
-21.3005 -25.9918 -29.3711 -30.9965 -31.1386 -30.0307
-28.2531 -25.9225 -22.2680 -16.1189 -6.4439 5.9737
17.8463 27.2126 33.7981 37.0462 37.8042 37.2922
36.2818 35.1402 34.4058 34.0815 32.1973 27.4650
20.3474 12.6731 7.4907 6.4885 9.8259 16.0242
21.7688 24.5650 23.6457 19.9183 14.5364 8.4374
2.5088 -3.3560 -9.2837 -15.1093 -20.7071 -26.0535
-31.4446 -36.7645 -42.0216 -47.1548 -51.0343 -52.4310
-51.6684 -51.2129 -51.3222 -49.8918 -45.4009 -37.0560
-27.3290 -19.0224 -12.9125 -8.8508 -6.3224 -6.1293
-9.1296 -15.2231 -22.9283 -30.3311 -36.3781 -40.4626
-42.2520 -41.5095 -38.8363 -34.4001 -28.9115 -24.1783
-21.3147 -22.4335 -26.9663 -32.8721 -39.7373 -46.2645
-52.0036 -56.3150 -58.3239 -58.2984 -56.1054 -51.4022
-44.9980 -37.3939 -29.8499 -24.4944 -20.6805 -17.9909
-16.6634 -15.7505 -14.3874 -12.1598 -8.9126 -4.8645
-1.0278 2.3770 5.3882 8.2355 10.8859 12.5168
13.6056 14.2333 14.7335 15.2939 15.5043 15.9972
16.2633 15.2565 11.5410 3.2672 -9.4692 -21.7737
-29.5664 -33.8969 -35.1233 -34.4636 -33.0970 -30.6461
-27.4854 -23.4173 -18.3688 -12.0066 -3.8977 5.0968
13.1620 18.8983 22.5792 25.5522 28.7602 31.5728
33.4260 34.6943 34.9430 34.0301 32.1769 29.4718
26.2501 22.8508 20.1466 18.6551 17.2128 15.2521
13.3288 10.7485 8.6967 7.9842 8.3796 10.5782
13.1602 15.8134 18.7189 21.1516 23.1242 24.6011
25.6370 26.1081 25.5678 23.0795 18.5185 13.2933
8.2394 4.9175 4.6059 6.1912 8.9984 12.6474
16.4941 19.3577 21.1371 22.9475 24.3442 25.0048
24.8754 24.1438 23.1343 21.9243 20.4657 19.5336
20.2971 22.3079 26.5719 31.8837 36.8183 42.6066
47.7626 51.8380 54.6651 56.0637 56.4263 54.7945
51.3870 46.8087 41.9716 37.9445 34.6362 32.0195
30.0333 28.1683 26.0982 23.7239 21.5846 20.3173
20.2754 21.5054 23.0351 23.8077 23.0433 20.4968
16.0715 10.3735 4.8694 -0.2428 -4.4330 -7.3613
-9.6281 -11.2371 -12.0653 -12.0918 -11.4986 -10.8818
-10.4217 -9.6536 -9.6272 -11.4494 -14.6510 -18.3793
-21.6201 -24.0427 -25.6718 -26.3351 -26.1219 -24.9593
-22.7198 -19.7313 -16.2837 -12.9062 -10.2849 -8.9511
-9.3483 -11.2507 -13.5722 -15.7415 -17.8690 -19.3960
-19.7714 -18.8603 -17.5437 -16.5260 -15.2759 -13.8109
-12.0187 -9.6935 -6.8090 -3.2912 0.3114 3.8046
6.5962 7.7706 7.6531 6.6017 4.8050 2.1591
-2.0056 -7.9496 -15.0517 -22.3852 -28.3366 -32.3746
-34.3354 -34.2625 -33.7413 -32.0922 -31.5063 -31.8626
-31.9664 -33.8707 -34.8036 -35.5562 -35.2273 -32.5149
-28.8276 -22.6257 -15.2803 -7.6379 -1.1372 3.2599
5.2698 4.6739 2.3023 -2.2778 -8.1408 -15.5008
-23.5732 -30.4539 -35.7739 -39.7126 -43.5812 -47.7140
-51.9187 -55.7089 -58.4659 -60.0722 -59.7114 -57.1503
-53.0384 -48.3180 -44.0786 -40.4104 -37.4102 -34.9283
-32.5448 -30.0784 -26.4887 -20.3551 -10.5014 1.5662
13.5036 24.1536 32.8984 39.9176 44.6445 47.4124
48.1112 46.4886 43.0218 37.6125 30.8676 22.6831
14.1806 6.5811 1.2019 0.5313 3.4879 8.1245
13.6376 19.3968 24.6484 28.7202 32.1979 35.2018
37.1224 37.6436 37.0550 35.5235 33.8516 33.1974
33.6612 35.4005 38.5593 42.9527 48.1879 53.8532
59.2543 63.5383 65.6894 65.1000 62.2108 57.2936
50.8867 43.1878 34.6234 26.0808 17.4836 9.1269
1.1410 -6.2035 -12.2150 -16.0981 -17.3135 -15.5414
-10.7080 -4.1389 3.0890 9.3592 14.0396 16.2472
15.7835 12.6584 5.5126 -2.1909 -9.7777 -17.3308
-23.3532 -28.6741 -31.9933 -33.5285 -33.3927 -31.4247
-27.7648 -21.8754 -14.8480 -7.2247 0.2191 6.9021
12.3241 14.6219 13.4047 8.9402 2.1871 -4.5086
-9.8113 -13.5942 -15.6096 -15.2096 -12.3988 -6.7827
1.4145 11.7000 24.0183 35.7834 44.7314 50.1799
52.6463 54.4922 56.3663 57.8269 58.4801 58.2952
57.7412 56.1741 53.6667 50.6355 47.9605 46.1264
44.4418 42.9995 41.2310 38.8202 36.0705 33.2023
30.1829 26.4565 22.4458 18.0907 13.4149 8.6625
3.4829 -2.0047 -8.1237 -14.6108 -21.2628 -27.6515
-33.4927 -38.5429 -42.6120 -46.7548 -50.2653 -53.1307
-55.4959 -57.1733 -58.7067 -59.9476 -61.4455 -62.9178
-64.3155 -65.5755 -66.3272 -66.6780 -66.3645 -65.7586
-64.8293 -63.4845 -62.0832 -60.7849 -59.8446 -59.6760
-60.5434 -62.6973 -65.9627 -69.6718 -73.9103 -78.2116
-82.0337 -84.9329 -86.2877 -86.9328 -86.8963 -86.0818
-84.8809 -82.5995 -79.1610 -74.6519 -69.3656 -63.1546
-55.0657 -45.1638 -34.9666 -26.2491 -19.1607 -13.8334
-9.6077 -5.4248 -1.2136 3.6089 8.7703 14.1523
19.4987 23.8037 26.6791 27.6349 26.8085 25.3881
24.2665 23.9759 24.3203 24.5690 24.8752 25.1348
25.5886 26.0350 25.8255 25.0948 23.5641 21.9332
20.8135 20.6048 21.9515 24.9390 29.5948 35.1179
41.2014 47.5555 53.6317 59.0820 62.6462 65.1591
66.5904 66.1686 64.9386 62.4977 59.5631 57.0247
54.8572 52.5575 48.8420 43.3362 36.5138 29.6431
23.8093 19.5389 17.0544 16.1451 16.0859 16.8257
18.4110 21.1006 25.2671 29.9147 34.7509 38.2168
39.7666 39.7283 36.9075 33.7141 29.8601 24.7688
19.7513 13.0838 6.9985 0.4978 -7.6549 -14.1711
-20.5917 -26.6979 -31.8175 -36.6145 -40.0202 -42.1595
-43.0041 -43.0332 -43.1325 -43.6418 -44.5648 -45.7246
-46.9191 -47.9268 -48.7741 -49.3071 -49.2551 -48.6538
-47.4502 -44.7843 -40.1878 -33.6961 -24.3964 -12.2240
0.4961 11.3638 19.7779 26.4381 31.6506 35.2631
37.6457 39.3440 41.3639 43.4203 44.9574 45.3674
43.5944 40.6050 36.2235 32.0342 29.2462 28.4763
31.2826 34.9343 39.4397 43.1325 43.7529 41.7995
36.3538 30.9847 26.6469 22.7683 20.3711 18.5799
18.7931 20.2072 21.8381 23.9400 25.2119 26.3827
27.4788 28.8381 30.5774 32.0890 33.6206 33.7017
32.7195 30.4189 26.5567 22.4795 17.7199 14.2222
12.0765 10.3408 9.7350 8.6936 7.5857 6.3657
4.8241 4.4332 4.7239 5.9566 8.1797 10.4265
12.7471 15.0832 17.3783 19.0529 19.3992 18.8862
18.1828 17.6544 17.4767 17.7975 18.7323 19.9231
20.5782 19.8602 17.3091 12.9595 7.3425 1.2107
-4.8399 -9.9750 -13.7907 -16.6689 -19.0332 -21.7027
-25.2852 -29.3624 -33.6793 -38.2348 -42.5626 -46.4193
-49.6137 -51.7411 -52.1684 -50.2824 -46.0731 -40.8597
-36.8253 -34.1867 -32.1531 -30.7892 -30.4493 -31.4206
-33.1681 -34.9046 -36.3524 -37.4740 -38.3304 -38.9919
-39.5403 -40.0433 -40.0187 -38.7805 -36.0098 -32.2615
-28.4977 -25.2678 -23.2178 -22.3167 -22.8105 -24.4414
-26.2973 -28.5195 -30.9184 -33.0559 -34.0700 -33.9132
-33.1461 -32.0017 -30.1166 -26.8047 -22.3266 -16.7643
-11.9746 -9.3688 -8.6554 -10.4348 -13.7193 -17.0640
-20.8725 -26.3182 -33.1406 -40.3228 -47.6600 -54.3749
-59.8206 -63.9306 -66.6065 -68.6483 -70.3630 -70.9461
-70.1607 -67.5477 -62.7033 -55.0345 -44.7672 -34.8661
-28.2496 -25.7659 -25.0790 -24.1542 -21.6176 -16.3077
-9.9855 -3.0383 4.3727 12.4606 21.4259 30.0423
38.1922 44.5071 48.8987 51.8698 52.9148 52.4065
49.7761 44.9445 38.3253 29.8893 20.3764 11.3054
4.8666 1.5629 0.3502 0.2591 0.0304 -0.1873
0.3129 1.9811 5.1117 9.0368 13.3135 17.4627
20.8493 23.5107 26.3342 30.3295 35.9310 43.3255
51.6422 59.7228 67.0545 72.9749 77.6890 82.0240
86.1359 90.3370 94.3496 97.7006 100.3055 101.8134
102.4111 102.1997 101.4790 100.7429 100.2217 99.9593
99.9848 100.5051 101.3260 101.7989 101.0645 98.7685
94.7651 89.4752 83.7507 78.4945 74.5777 71.6858
69.2048 66.6510 63.2717 58.3335 52.1042 45.4978
39.7305 36.2345 34.8579 35.2424 36.4341 36.5626
35.3034 32.6248 28.8965 24.8175 19.7881 13.6773
7.2358 0.8416 -5.0031 -9.5651 -12.7722 -15.3533
-17.8516 -21.2464 -26.2502 -31.5301 -36.2077 -40.2494
-43.2069 -44.7885 -45.3088 -45.6422 -45.9520 -47.1273
-49.5746 -53.0422 -57.6789 -62.8175 -69.0058 -74.6364
-79.4972 -84.1457 -87.1879 -90.5426 -92.8659 -94.3474
-96.2971 -96.3627 -95.7259 -94.4057 -93.0800 -93.2586
-93.4563 -94.2462 -95.7213 -97.5344 -99.7028 -101.6535
-103.7126 -105.7635 -107.5402 -108.9378 -109.9364 -110.9942
-112.2615 -113.3886 -114.3908 -114.7242 -114.3917 -113.8131
-112.9731 -111.8852 -109.9773 -107.2340 -103.9075 -99.8330
-94.9076 -90.3201 -87.0975 -85.4675 -84.8744 -83.9332
-82.6467 -81.3611 -80.4919 -80.2705 -79.9006 -78.5066
-75.3706 -71.0820 -66.1729 -60.4347 -54.0724 -45.8588
-35.8384 -24.5352 -11.8716 0.4038 12.1953 22.6248
31.2767 39.0941 45.7597 52.1840 59.2752 67.5326
75.9467 85.1279 95.6440 105.0275 114.0302 123.1650
129.4562 134.7789 140.1526 142.1434 143.8089 146.4484
148.3107 150.1858 151.2044 150.9812 150.3416 149.1599
146.7318 144.0267 139.9805 134.9184 130.7828 126.2610
121.2563 114.6890 106.0553 97.1848 89.0085 82.1259
77.3408 73.5570 70.0346 66.8138 61.7763 56.0491
50.0239 43.1250 38.0110 33.3124 29.6470 28.6557
27.6280 28.7395 30.7567 31.8154 33.5028 33.6030
32.0004 26.4618 18.8194 12.5336 5.0835 -2.3165
-9.9835 -18.3703 -26.4044 -35.0654 -43.2736 -50.5379
-56.7034 -61.3291 -64.4988 -65.7543 -65.3826 -63.5695
-60.4717 -57.0222 -53.2475 -49.8554 -47.3180 -44.7887
-43.1579 -42.4217 -42.1429 -42.8280 -44.6593 -47.5184
-50.8020 -53.6957 -55.1899 -54.7572 -51.7960 -45.9176
-36.7345 -26.9628 -20.1659 -15.7780 -14.6747 -17.1356
-21.6264 -27.2680 -32.9761 -37.8314 -39.3074 -36.2506
-28.2365 -15.5857 -0.9670 13.2300 24.7273 32.5564
36.5936 38.0122 38.3101 39.1529 41.5837 46.5529
54.4459 63.5287 73.5355 82.1628 90.3865 97.5205
100.2246 101.0692 98.6092 92.7071 82.9746 67.7764
51.5021 38.2200 30.5958 26.9323 24.3338 21.8355
18.4917 15.6464 14.4145 14.3717 14.6068 14.5858
13.8652 12.0967 9.5082 7.2851 6.8843 7.8254
9.6431 10.6973 8.3748 4.2803 0.1539 -4.0818
-7.9021 -11.3242 -14.9350 -19.2618 -24.3112 -30.9240
-38.7650 -46.2944 -53.6261 -60.4595 -66.5120 -71.9303
-76.3592 -79.6046 -81.2145 -81.4286 -80.8984 -79.6656
-77.7322 -75.6021 -73.3589 -71.2369 -69.7536 -68.9692
-69.3700 -69.9969 -70.1846 -69.5987 -67.4038 -63.7412
-59.2366 -55.2897 -52.7122 -51.6844 -51.4904 -51.4129
-51.2425 -49.9560 -46.7298 -41.8472 -36.3176 -30.6031
-24.5834 -18.5801 -12.7864 -7.5867 -4.2283 -2.9928
-3.4338 -5.0483 -6.6354 -7.7197 -8.8266 -10.0156
-11.1627 -12.0000 -11.8716 -10.3864 -8.0522 -6.2546
-5.5065 -5.1721 -3.5804 0.0749 5.5052 12.7931
20.4283 28.0287 35.5099 42.7095 49.9883 57.0777
64.1178 70.5257 76.5590 81.3934 84.2251 85.0233
81.8918 73.4039 59.8539 44.0024 30.5754 20.7436
12.7477 7.2236 4.1122 2.4986 2.5952 4.3017
6.7626 9.7948 13.6397 17.7342 21.6365 24.3680
25.4969 25.2555 23.3995 19.4973 13.3801 5.9172
-1.4054 -7.6520 -12.7542 -16.6674 -19.5164 -21.1610
-20.9678 -18.7620 -14.3413 -7.9125 -0.6082 6.3290
12.1000 16.7895 20.6226 23.5008 24.5613 22.6972
17.3644 8.1395 -3.1219 -13.3409 -20.5359 -23.7685
-23.6646 -21.0343 -16.9707 -13.7527 -12.6092 -12.5782
-13.0511 -13.4565 -13.4146 -13.2069 -12.1755 -10.2540
-6.1740 0.5518 8.4220 16.2430 21.3142 23.9182
25.6593 26.0001 26.0948 26.1750 25.4288 23.4253
19.3353 13.2737 5.7215 -2.5140 -10.6502 -17.8935
-23.5069 -27.2934 -29.5685 -30.9461 -31.0663 -29.7716
-26.7422 -20.9767 -12.3330 -1.6976 8.0759 15.0933
19.9941 23.0008 24.8012 24.7702 21.2387 15.4031
8.8777 1.9551 -4.4983 -8.6703 -10.1098 -9.0629
-5.7274 -1.3221 3.2106 6.9234 9.2686 10.2062
9.0937 6.0296 1.8896 -2.4255 -5.7638 -7.5195
-7.4639 -5.7118 -3.0851 -0.7818 0.8518 2.2194
2.8399 4.0672 7.6752 12.7619 17.8869 21.9258
24.7385 26.7101 27.8053 28.0039 27.6367 26.9233
26.2218 26.1225 27.0026 28.9560 31.7969 34.8764
37.0421 37.9742 37.7073 36.1994 33.0032 26.5762
16.4720 5.8476 -2.3825 -9.2449 -15.7248 -21.2242
-26.5733 -32.6586 -37.3636 -40.1325 -43.2193 -47.3521
-50.9446 -52.3349 -51.6316 -49.4595 -47.1963 -45.7394
-44.9832 -44.6178 -43.7896 -41.9728 -38.7994 -34.4735
-29.7876 -26.3136 -25.1273 -25.8781 -27.8861 -29.9571
-31.6481 -33.0202 -34.2548 -35.1677 -35.3946 -35.5850
-35.0875 -33.5341 -31.7911 -29.4131 -27.5471 -27.2529
-28.0482 -30.7798 -34.0634 -36.8669 -38.9360 -39.3150
-38.8303 -37.1165 -35.2970 -34.5572 -33.7089 -32.3705
-30.1428 -26.5968 -21.2641 -14.1501 -5.8800 2.7282
10.7669 17.7160 22.6433 25.0450 24.9539 22.6806
19.2430 15.8637 14.0506 14.3577 16.1407 17.9812
19.0289 18.9096 17.7570 16.9726 17.1603 18.9925
22.4110 26.4727 30.7413 35.0518 39.1855 42.8718
45.8776 47.4383 47.8128 46.7095 43.9697 39.9563
34.1708 27.5233 20.8604 15.3609 11.6472 9.3002
8.4001 8.1777 8.8356 10.1995 12.0937 14.3487
15.8183 16.8543 17.1996 17.2461 17.2698 16.8935
16.3741 15.1596 13.7757 12.2295 10.5130 8.7655
6.8403 5.5311 4.6609 4.5899 5.5456 7.3651
9.6502 11.1982 11.9972 12.2360 12.2833 12.2852
12.4009 12.8300 12.8756 12.6205 11.9554 10.7673
9.7787 9.5637 10.5240 11.9882 13.7175 16.1583
18.1947 19.4256 20.4533 21.6533 22.8960 23.3425
22.8988 22.0715 21.7426 22.5608 24.6263 27.5619
31.0988 35.0949 38.7867 41.7916 45.1782 48.8800
51.3801 53.1313 53.9230 53.3618 51.6298 47.5052
40.3193 29.0580 16.2879 7.3198 1.8131 -1.8031
-4.2558 -6.6475 -8.2091 -9.3626 -10.0222 -9.8336
-10.0760 -10.6755 -11.3251 -11.9474 -12.3656 -12.5997
-13.4206 -15.0825 -17.2473 -20.3542 -23.9740 -27.9519
-31.9735 -35.6198 -39.3435 -42.6809 -45.2757 -47.4305
-48.8837 -49.8376 -50.5437 -50.8317 -51.0667 -51.1861
-51.4302 -52.2038 -53.4037 -55.4163 -57.9228 -60.4548
-62.1795 -61.7248 -59.2694 -55.4746 -51.8812 -49.2982
-47.7493 -47.4933 -47.7903 -48.8927 -50.1564 -50.8243
-51.1495 -51.0766 -50.8826 -50.4680 -49.9587 -49.4731
-49.4384 -50.1664 -51.3591 -52.9189 -54.1315 -54.2910
-52.9999 -50.4388 -47.0959 -42.9231 -37.7716 -31.4321
-24.4731 -18.3495 -14.2349 -11.6473 -10.2351 -9.1445
-6.5952 -2.8223 1.7706 6.3854 10.4307 14.5006
18.8084 23.2992 28.0197 33.0190 38.2351 43.7774
49.1611 54.1248 58.5948 62.4488 65.8973 68.7737
70.8401 72.6450 74.1319 74.7706 74.7233 74.2477
74.8253 76.0271 77.3810 79.2287 80.4906 81.2687
81.0546 79.6633 77.1460 73.7894 70.8684 68.2818
65.8828 63.6989 61.1542 58.2204 54.3518 49.2460
44.1301 39.5190 36.1807 34.8022 34.8404 35.7707
36.8130 37.2394 36.7110 34.9188 31.9832 27.8760
22.5241 16.4188 9.0287 2.0806 -4.5358 -11.2653
-15.4008 -19.1619 -22.1367 -24.2677 -27.1031 -29.0082
-31.3407 -33.5137 -34.9842 -36.0156 -35.9910 -35.8042
-35.3331 -34.6270 -33.8298 -32.6872 -31.6750 -30.8003
-29.6614 -27.9258 -24.8581 -20.5467 -14.8814 -8.1173
-1.2102 6.2108 13.5334 19.5540 23.5602 24.7629
23.1794 19.5121 14.7051 9.8198 5.7043 2.5008
0.1073 -1.7231 -3.6200 -5.7073 -7.9532 -10.1198
-11.5612 -12.6746 -13.6586 -14.5360 -15.1765 -14.3064
-12.0796 -9.5267 -7.9067 -7.9650 -9.5285 -12.2354
-14.3309 -15.2566 -13.8663 -10.2838 -5.5241 -0.2278
3.3428 6.2903 6.6583 6.7795 7.4556 5.2853
5.2498 4.3423 3.7492 4.3852 2.5894 2.0026
-0.2460 -3.1697 -6.0042 -10.0140 -13.1154 -16.4683
-18.8208 -20.6202 -22.4816 -23.6469 -24.8541 -25.2678
-24.9962 -23.9311 -21.7973 -20.0371 -18.5146 -17.0094
-15.8241 -14.2041 -12.1687 -9.0964 -4.8670 -0.5010
3.7284 7.5140 11.1166 14.5487 17.9873 20.9593
22.6294 22.7688 21.0031 18.1276 14.7492 12.1653
11.2360 11.2943 11.6478 11.0520 9.3272 6.1866
2.0611 -1.9605 -5.7616 -8.2763 -9.3122 -8.6007
-5.4965 -0.9355 4.7526 10.1263 13.7963 16.6216
18.3209 19.3377 19.6730 18.4311 16.3219 13.5102
10.0471 5.9808 2.2762 -0.6293 -3.6305 -6.8685
-10.5731 -13.0778 -14.0271 -14.6667 -14.6749 -15.2762
-15.8894 -17.1030 -18.7685 -20.2873 -23.1027 -24.5468
-26.7826 -28.5465 -28.5675 -29.6362 -27.5343 -24.5230
-21.3742 -17.6250 -16.2665 -15.2142 -14.2940 -13.4175
-12.1948 -9.9689 -7.0488 -4.1105 -1.1093 0.2392
0.2036 -1.2960 -4.1551 -7.8642 -12.2512 -16.6245
-20.3246 -22.9003 -24.3553 -24.4564 -23.6792 -21.4270
-17.7306 -12.5737 -5.8880 0.0397 4.7055 8.1750
10.4464 11.9698 12.4172 12.0682 11.3266 10.7580
11.2409 12.7106 15.4421 19.0920 22.6080 25.5007
26.8647 27.1817 26.9950 26.8629 27.3567 28.7225
31.0002 33.0612 35.0027 36.4050 36.9516 36.6974
35.3645 33.1960 29.5789 24.8703 19.8146 15.8841
14.6286 15.5542 18.2393 21.6159 24.3009 25.8097
25.5409 23.8754 21.3161 17.9177 14.6660 11.2639
8.0732 5.9138 4.0761 3.5878 4.2156 5.4847
7.5958 9.4781 11.7514 14.6277 17.6718 21.1905
25.0417 28.0867 29.7021 30.4018 30.0957 28.9559
27.1801 25.0709 23.0127 20.8197 18.4089 15.9207
13.1719 10.1424 7.1039 3.1406 -1.6300 -6.4634
-11.0646 -15.3213 -19.3575 -22.6575 -25.4728 -27.6568
-29.4115 -30.7746 -31.3577 -31.9107 -32.1549 -31.9490
-30.9422 -28.6799 -25.8236 -22.7358 -19.7683 -16.9247
-14.1440 -11.3114 -8.3530 -5.6096 -3.2799 -1.7411
-1.2900 -1.7684 -3.1615 -5.7618 -9.2130 -12.9723
-16.4254 -19.0895 -20.5837 -20.5764 -19.5732 -17.9970
-16.0381 -13.9408 -12.5896 -12.0866 -11.7176 -11.7495
-12.3718 -13.5216 -15.2491 -17.5205 -20.0260 -22.5051
-24.7064 -26.5659 -28.4164 -30.1493 -31.8677 -33.6471
-35.2643 -37.0291 -38.4240 -39.2886 -39.3570 -38.2263
-36.6874 -34.3112 -32.1756 -30.6631 -28.8500 -27.3412
-25.0853 -22.3811 -19.7699 -17.1122 -15.1679 -13.3329
-11.6200 -9.7367 -7.4006 -4.9060 -1.5987 1.8790
4.9887 7.5298 8.8882 9.3784 9.1597 8.2477
6.5567 4.1979 1.6814 -0.8105 -3.3662 -5.8426
-7.9099 -9.6127 -10.8609 -11.3848 -11.0085 -9.8906
-8.5567 -7.1226 -5.1027 -2.4304 0.6200 4.0376
7.3659 10.3826 12.8016 14.2530 14.9800 15.1941
14.7759 13.4348 11.4850 9.0323 6.9140 4.9178
3.4345 2.9388 2.4833 3.9930 5.1374 6.3510
8.4165 8.6962 10.2924 11.2491 11.9024 12.9975
12.4454 12.7288 12.3297 11.2245 9.7476 7.0344
4.0496 0.5965 -1.7806 -2.7919 -3.0361 -1.7742
0.3186 2.9690 5.7306 7.6230 8.7236 8.4776
6.8577 4.0250 0.1446 -4.3134 -9.4138 -14.7520
-19.7230 -23.5460 -25.9915 -26.9527 -26.4142 -24.7824
-22.2951 -18.9859 -16.0084 -12.9616 -9.9568 -7.9442
-5.1234 -3.0232 -0.6334 2.3551 4.4297 7.3762
9.3314 11.5327 14.7608 17.1943 19.5222 20.2757
19.0457 16.6932 13.2975 10.0403 7.5958 6.1271
6.0916 6.6565 7.4701 8.5070 9.1721 10.0477
10.8121 11.2622 11.3815 10.9287 10.2417 9.1165
7.7526 6.0889 4.5045 3.5442 2.8089 2.0327
1.5953 1.3767 0.7444 -0.4246 -2.4399 -4.8234
-8.1289 -11.6431 -14.9968 -18.1083 -19.3711 -20.4380
-19.5588 -18.4208 -18.4035 -17.8167 -20.2029 -23.5202
-26.5916 -28.3272 -28.4092 -29.0835 -28.8092 -28.4229
-27.3678 -25.7952 -23.0528 -19.6079 -16.9356 -14.0938
-12.9723 -12.3618 -12.1905 -12.3509 -11.7577 -11.2666
-10.0530 -8.3994 -6.3913 -4.3568 -2.6366 -0.9938
0.3674 1.8625 3.7367 6.0263 8.6193 11.5039
14.5525 17.5190 20.4902 23.4185 26.2174 29.0218
31.6176 34.2625 37.1562 38.8482 40.0691 41.3874
42.1327 43.4475 44.1636 44.1089 43.8265 42.1528
39.7183 36.3727 32.4896 29.2087 26.6813 24.8773
23.3985 22.6624 22.3918 22.5421 23.0432 23.2573
23.3093 22.4565 21.6092 21.3850 21.0789 21.0170
20.7363 20.5787 20.9058 21.3404 22.0101 22.7116
23.1062 22.9312 21.9691 20.4020 18.1388 14.9918
11.5333 7.5308 3.3233 -0.4177 -3.8426 -6.3418
-8.3535 -9.9634 -10.9948 -12.2785 -13.5769 -15.1376
-17.1858 -19.3743 -21.5226 -23.1927 -24.3416 -24.7316
-24.6468 -24.4937 -24.1484 -23.7457 -23.1653 -22.6351
-22.1312 -21.6556 -21.4224 -21.2556 -21.3604 -21.5499
-21.7749 -22.1066 -22.2451 -22.2496 -22.3170 -22.4045
-22.4874 -22.5539 -22.4446 -22.3207 -22.0655 -21.6337
-20.9950 -20.1795 -19.4989 -18.6334 -17.7505 -17.0480
-16.2954 -15.7752 -15.4107 -15.0354 -15.0381 -15.3242
-15.8645 -16.4120 -16.3319 -15.7733 -14.7246 -13.2605
-11.4601 -9.0120 -6.0581 -2.7089 1.0923 5.2141
9.3442 13.1025 15.9971 17.6326 18.0963 17.5506
16.1229 13.7804 10.6107 7.1621 3.7509 1.0313
-0.2488 0.0391 1.8640 4.8379 8.2108 11.5537
14.9184 17.9543 20.7587 23.3490 25.2104 26.6126
27.5838 27.9164 27.9419 28.3337 29.1054 30.0028
30.8620 31.3832 31.7148 31.8961 32.0428 32.3717
32.7763 32.9166 32.1485 29.9336 26.1425 21.3155
16.8665 13.7560 12.2153 12.0067 12.4905 13.1374
13.3970 13.2822 12.7256 12.1598 11.5976 10.7785
10.1408 9.1786 8.0744 6.5829 4.5529 2.5367
0.2643 -1.9487 -3.8675 -5.5021 -6.4277 -6.1489
-4.2146 -0.2121 5.2773 11.5330 17.6675 22.6823
26.8205 29.6340 31.5966 32.6644 32.2180 31.6576
29.9147 27.3399 24.8343 21.8067 19.7476 17.4799
14.9197 12.3585 8.6467 4.5713 -0.1674 -4.9990
-9.5545 -13.9479 -17.6224 -21.0327 -23.8489 -25.8397
-27.1280 -27.1116 -25.7987 -23.0371 -19.0674 -15.2790
-12.5256 -11.0615 -10.2733 -9.8643 -9.2174 -7.4061
-4.9934 -1.6378 2.3556 5.9845 9.1133 10.6066
10.3196 8.4254 4.7883 0.1635 -5.6649 -12.1693
-18.4323 -24.2907 -28.9018 -32.4497 -35.0144 -36.5442
-37.4325 -37.6494 -38.1149 -39.0078 -40.3872 -42.4308
-44.6175 -47.1641 -49.8145 -52.3883 -54.9076 -57.2573
-59.4166 -61.1651 -62.5153 -63.2014 -63.4911 -63.5385
-63.1075 -62.2520 -60.6748 -58.0773 -54.2688 -48.8796
-41.8322 -34.9997 -29.7536 -25.8941 -23.4769 -22.0948
-21.5481 -21.5490 -21.6765 -21.6702 -20.8502 -18.9769
-16.3174 -13.4146 -10.6730 -7.9069 -5.2683 -2.8621
-0.0887 2.8633 6.0923 9.8188 13.7657 18.2046
22.6563 27.1089 31.5715 35.8073 39.8253 43.1208
45.3102 45.8988 44.9266 42.4247 38.9024 35.5304
33.0740 31.7648 31.3292 31.4504 31.1981 30.0810
28.0156 24.6754 20.6830 16.6076 12.9267 10.0266
7.8673 6.7475 6.2811 6.5006 7.7006 9.4663
11.9965 15.0068 18.3688 22.0852 25.5155 28.2334
29.5326 29.0552 26.9314 24.3020 21.5969 18.6249
16.2788 14.3481 12.7136 11.2248 9.5429 7.8337
5.6735 3.0085 0.0510 -2.9329 -5.4803 -7.4511
-8.7539 -9.4327 -9.9028 -10.2554 -10.6846 -11.2440
-11.6303 -11.8836 -11.8435 -11.5765 -11.3943 -11.5000
-11.8216 -12.0111 -11.8999 -11.2786 -10.2864 -9.1329
-7.6186 -5.6014 -2.4453 2.5585 9.1112 16.3126
22.7369 27.1166 29.1265 29.3607 28.3612 26.6237
24.3878 21.5871 18.5640 15.2421 12.0869 9.4702
7.6599 7.2991 7.9341 8.7496 9.1878 9.0056
8.1218 6.7105 5.8104 5.9233 7.0604 9.0721
11.4091 13.9894 15.8709 16.8913 16.9059 16.3273
16.4549 17.1082 18.5605 20.2506 22.0437 23.7128
24.8800 25.7574 25.9797 25.6444 24.3616 22.2861
19.1901 15.5065 12.6447 10.8343 10.5528 11.7136
13.9203 16.9825 20.5131 24.4053 28.4507 32.5115
36.6297 40.4619 43.5587 45.6880 46.6966 46.9790
46.4142 44.8881 42.6850 39.7111 36.5259 33.5183
31.3490 30.5208 30.3058 29.9614 29.0421 27.2344
24.3043 20.1606 14.9691 9.5152 4.2134 -0.4751
-4.1824 -7.0369 -8.4282 -8.5603 -7.9744 -6.9494
-6.0401 -5.3723 -5.5873 -6.6688 -8.3534 -10.9328
-14.1836 -18.1661 -21.9116 -24.6322 -27.0977 -30.2091
-34.1205 -38.0911 -41.8923 -45.8647 -49.6540 -52.4739
-54.4993 -55.5452 -55.6217 -55.1744 -54.5138 -54.3362
-54.3562 -54.7480 -55.6436 -56.5574 -57.4394 -58.0717
-58.4325 -58.4662 -58.2284 -57.8020 -56.9000 -55.6572
-53.9580 -51.5308 -48.5032 -44.7403 -40.8498 -37.1352
-33.8580 -31.2986 -28.9844 -27.4437 -26.6073 -26.6766
-27.6624 -29.1074 -31.2767 -33.3386 -35.2237 -36.5074
-36.4209 -34.8264 -31.3259 -26.8086 -21.5233 -15.9300
-11.0072 -6.6057 -3.0113 -0.0502 2.4736 4.4224
5.8738 6.6547 6.6383 5.8338 4.3578 2.4126
0.0655 -2.5721 -4.6276 -5.9760 -6.3641 -5.6881
-4.2030 -1.3712 2.2286 6.5673 10.7739 14.3810
17.4787 19.4631 21.2088 22.2921 23.5905 25.3790
27.1557 29.2348 31.3322 33.9407 36.2021 38.8552
41.5913 43.9520 46.7263 49.0151 51.0286 52.1702
53.1169 54.5145 55.3090 55.7837 55.8858 55.1177
53.5023 50.8519 47.6630 45.0381 42.5043 39.5195
35.4533 29.9228 23.7901 17.5472 11.6651 6.3032
1.4625 -2.6876 -6.5334 -10.3719 -14.0819 -17.5915
-20.6273 -22.7867 -24.0112 -24.0950 -22.8349 -20.5827
-17.4457 -14.2395 -12.3490 -12.0055 -13.4040 -15.8385
-18.5891 -21.7671 -25.1518 -29.0969 -33.4402 -37.9557
-42.3545 -46.2795 -49.7354 -52.3803 -54.3911 -55.7004
-56.2270 -55.8972 -54.2198 -51.3671 -47.4530 -42.9831
-39.0025 -36.1261 -34.7685 -34.4314 -34.2756 -33.8182
-32.5691 -30.4453 -27.4177 -23.4999 -18.8013 -13.9305
-9.5025 -5.6366 -2.8632 -0.7303 1.5611 4.1059
7.0205 10.4527 14.4178 18.4796 22.2716 25.4332
27.7966 29.3819 30.5299 31.5194 32.3540 33.3425
34.3202 35.5657 37.2594 38.9851 40.5813 41.5016
41.2100 39.4734 36.3994 32.1345 27.2382 22.8138
18.5835 14.6011 10.8983 6.8858 3.8400 1.8000
0.0361 -1.4335 -2.5797 -3.1200 -3.4543 -3.6511
-3.7869 -3.9390 -4.0894 -4.3071 -4.1677 -3.5272
-2.4630 -1.0845 0.3222 1.3500 1.4994 0.6986
-0.9815 -3.8424 -7.3101 -10.9955 -15.0900 -19.1226
-23.0431 -26.8033 -30.2536 -33.3022 -36.0064 -38.6131
-41.0566 -43.5157 -46.1097 -48.5223 -50.6032 -52.1785
-52.9120 -53.0559 -52.5986 -51.5362 -49.9873 -47.5191
-44.0742 -39.2499 -33.5745 -28.6691 -24.5737 -20.5265
-15.9555 -10.4250 -3.8268 3.3336 10.0075 15.3676
18.9492 20.9199 21.9303 22.2875 22.5080 22.8989
23.5139 24.5808 25.7871 26.6782 27.0517 27.0153
26.7620 26.4859 26.9214 29.5546 32.9457 34.9948
36.2339 37.5049 39.6624 40.8560 41.8637 44.6307
47.3048 50.2022 53.3246 56.4187 60.0559 63.3996
66.3462 68.8973 71.0894 73.1604 74.6373 75.7270
76.7793 77.8490 78.9633 80.0867 81.2383 82.1768
82.7945 82.8100 82.0683 80.5022 77.7734 73.5221
66.9120 57.6178 47.1546 37.7529 30.8913 26.4889
24.3560 23.9122 22.6977 20.9302 20.0191 18.7763
16.5961 13.8664 10.6256 6.8754 2.9677 -1.3218
-6.2828 -11.5709 -16.8617 -22.2955 -27.8369 -33.2981
-38.9032 -44.0893 -48.9346 -52.5125 -54.6372 -55.6640
-54.7028 -53.7625 -52.1708 -51.1950 -51.5558 -51.6961
-54.5032 -57.9627 -62.1110 -67.2505 -71.6794 -76.9766
-81.4483 -85.3962 -89.1217 -92.0655 -94.7651 -96.3750
-97.7463 -98.6637 -99.4728 -100.5014 -100.6445 -100.9397
-100.8923 -100.2800 -99.7826 -98.7357 -97.8865 -97.5157
-97.1048 -97.0574 -97.5621 -98.4022 -99.5174 -100.6517
-101.3879 -101.3651 -100.6572 -99.1684 -96.1882 -91.7228
-85.8507 -78.3523 -69.3969 -59.1743 -47.5576 -35.4945
-24.3134 -14.0862 -4.8803 2.6427 8.4684 13.6635
18.3184 22.7482 27.1972 30.8799 35.4154 39.6958
42.6268 47.3400 51.3753 54.9268 59.5635 62.6102
66.1818 69.3780 70.8695 71.4161 70.2690 67.9147
64.2803 60.2350 56.8648 55.3241 55.9391 57.8415
60.8929 65.1805 70.2299 75.0688 79.6982 84.5371
88.6945 90.8356 91.4479 92.3690 93.2628 92.4647
89.9218 85.0146 76.3463 63.2545 47.2791 31.8704
19.6761 12.0629 8.1379 6.5398 5.5704 5.5631
7.1029 5.9913 4.3768 5.4856 6.9225 8.7092
10.4813 12.2807 14.2096 15.7657 17.2946 18.5264
19.2981 19.1432 18.0891 16.4354 13.9609 10.5032
6.3895 2.2048 -2.1193 -6.4070 -10.4541 -14.5268
-18.4291 -22.1008 -25.6323 -28.7164 -31.6830 -34.4363
-37.0193 -39.6406 -41.8400 -43.9538 -45.4115 -45.9391
-45.8234 -44.8949 -43.3715 -41.8810 -39.8701 -38.1226
-36.8780 -34.8873 -34.6586 -34.1292 -33.0195 -31.3713
-26.0795 -19.0075 -9.0764 1.9298 12.7593 22.7988
29.1811 33.8724 36.2413 37.0622 37.1534 35.8769
34.3982 31.6484 27.7434 22.6995 17.2265 12.6728
9.4657 7.5514 5.8477 4.3252 2.4483 0.6106
-0.5948 -1.6544 -1.3583 0.0294 1.3951 3.4269
6.0636 10.6502 17.3514 24.0080 30.4149 35.1891
38.0983 40.5036 41.8211 42.4416 42.0216 39.9169
36.8574 32.6763 28.4561 25.1086 22.6605 22.1904
22.7580 24.1748 27.4293 28.9536 29.5941 30.0715
28.1327 26.8398 24.4882 22.8665 23.1580 22.5093
23.7120 23.6427 22.1622 20.9131 18.1697 16.2172
15.6460 16.8013 20.2225 25.1744 30.8970 36.6735
42.0855 47.5613 52.4056 56.1157 59.1169 60.2448
60.1957 58.1976 53.8115 48.3822 40.8838 33.1867
26.0309 18.9907 13.2207 8.0374 4.1151 1.7471
0.5216 0.8178 2.8013 6.2945 10.4582 15.3436
19.9010 22.7409 23.8215 23.4124 22.6198 20.9069
18.0925 14.7168 10.5011 6.4266 3.1056 0.3267
-2.1888 -4.6324 -7.2692 -10.1738 -12.8351 -15.1967
-17.0071 -17.9738 -19.0124 -19.9080 -20.6324 -21.6856
-22.5985 -23.8969 -24.9893 -25.6271 -26.1500 -25.6753
-24.4517 -22.3434 -19.8570 -17.8735 -16.4157 -16.2089
-16.8585 -19.1864 -22.8372 -26.2065 -29.1111 -31.5838
-33.8707 -34.0529 -33.8488 -33.3085 -32.5113 -33.3486
-32.8776 -33.6939 -35.2027 -35.7794 -37.3465 -37.6818
-38.5374 -39.4257 -39.3364 -39.7883 -40.0206 -40.7040
-41.4647 -42.4651 -43.8582 -45.1502 -46.5223 -47.3095
-47.5901 -47.4689 -46.7437 -45.5200 -43.5502 -41.1349
-38.7487 -36.4426 -34.7115 -33.4123 -32.4765 -31.7613
-30.7281 -29.0535 -26.5552 -23.0839 -18.3498 -13.0772
-7.3053 -1.9935 1.8869 5.2444 7.6825 9.2861
10.4332 11.1812 11.1712 9.7735 7.1659 3.5042
-0.5949 -4.9126 -8.6956 -10.9979 -12.0913 -11.5783
-9.5893 -6.9116 -3.4922 -0.0865 3.0095 6.1392
8.6730 10.8259 12.7247 14.3811 15.8899 16.9823
17.6875 17.3094 15.9045 13.8837 11.4938 9.8119
9.2725 10.1636 12.7539 16.6143 21.4869 26.7887
32.0011 36.9776 41.2935 44.9872 48.0367 50.4967
52.1048 52.3353 51.1709 48.4330 44.8032 40.9647
37.4842 34.9769 33.1437 31.9675 31.4172 30.8550
30.1608 29.3307 28.2538 27.3409 26.7441 27.0402
27.9340 29.1221 30.4442 30.6273 29.9932 28.4069
26.2348 24.5794 23.5863 23.8459 25.2299 27.5487
30.2392 32.5662 34.3957 35.6093 36.2325 36.3373
36.1232 35.6403 35.3351 35.3497 35.7442 36.4148
36.7455 36.7482 35.9082 33.7926 30.3331 25.0760
18.4805 11.4786 4.5141 -1.8099 -7.2829 -12.1054
-16.2929 -19.6986 -21.9345 -23.1809 -23.9371 -24.5175
-24.9976 -25.2190 -25.1643 -24.9211 -24.4892 -24.4354
-24.9201 -26.2622 -28.5755 -31.2624 -34.8212 -38.6961
-42.9519 -47.6969 -52.5194 -57.6545 -62.4496 -66.7264
-69.8843 -71.8268 -72.4153 -71.3466 -69.2538 -66.1779
-62.5289 -58.6411 -54.4938 -50.1004 -45.6605 -41.8011
-38.6814 -36.4556 -35.2502 -34.7400 -35.0361 -36.2533
-38.1584 -40.6713 -43.5012 -46.5816 -50.1231 -53.7402
-57.2589 -60.7038 -63.8535 -66.4775 -68.4309 -69.5844
-69.7903 -69.2418 -67.9526 -65.7987 -62.0850 -56.2730
-48.1222 -38.5064 -30.3210 -24.4079 -20.5684 -18.4711
-16.6789 -14.6544 -11.7798 -7.9905 -3.9115 0.2459
4.0698 7.3699 10.3984 13.6666 17.1789 20.6056
24.2956 27.9810 31.4478 34.7898 37.2689 38.8214
39.2879 38.5308 36.9428 34.8372 32.4200 29.8206
27.0126 23.6296 20.1301 16.1731 12.3838 9.5922
6.5928 4.5702 3.0586 1.2182 -0.0045 -2.1693
-4.2639 -5.4794 -6.3376 -5.6789 -4.4206 -2.2977
0.7554 3.7129 6.8480 9.3326 11.5712 13.3005
13.9310 13.7925 12.1516 9.6697 6.3096 2.0283
-2.5892 -7.6951 -12.6269 -17.5360 -22.4195 -26.8211
-31.1452 -35.4757 -39.2094 -41.9163 -43.7750 -44.7280
-44.6697 -43.8105 -42.4584 -40.8986 -39.4436 -38.0896
-36.9435 -36.0150 -35.0602 -34.1400 -32.8234 -31.3483
-29.7038 -27.5216 -25.3377 -23.0007 -21.0281 -19.6706
-18.6474 -18.5709 -19.1686 -20.4696 -22.4777 -24.8284
-27.5699 -30.5037 -33.3135 -35.6897 -37.6149 -38.7364
-38.9879 -37.9501 -35.1594 -30.7569 -23.7669 -14.2002
-3.2569 7.4095 16.2263 23.3467 28.7614 33.0345
36.8211 39.7230 41.7775 42.8326 43.2034 43.3765
43.7802 44.7651 46.6301 49.2323 51.9273 54.3664
56.0957 56.8419 56.5266 56.0993 55.3987 54.5104
54.6543 54.7719 54.6844 54.7855 54.2753 53.8462
53.2585 52.9369 53.5191 54.4876 56.5413 58.4145
61.4777 64.8643 67.1466 70.9614 74.1604 76.5848
78.9683 80.7705 82.8988 84.6655 86.0431 87.6521
89.5973 90.9339 91.9498 92.8108 93.2245 93.4149
92.6477 92.0400 90.6652 88.7573 87.3898 84.6819
81.4265 77.3666 72.3774 67.3772 61.6445 55.7797
49.2607 41.5564 34.0562 27.1454 21.0610 15.7757
11.4078 7.9966 5.0136 2.6912 0.4080 -1.9919
-4.3125 -7.0112 -9.6707 -12.5398 -15.7897 -19.2328
-22.9920 -26.8496 -31.0161 -35.1107 -39.0421 -42.9817
-45.9274 -48.7126 -51.0405 -52.4664 -53.7255 -53.8130
-54.2376 -53.6344 -52.8973 -52.8399 -52.1976 -53.1907
-53.1178 -53.7310 -55.6862 -57.8756 -60.6736 -63.0443
-66.9247 -70.8771 -74.6855 -78.0102 -80.7900 -83.5388
-85.4612 -87.0411 -88.1444 -89.3088 -90.0833 -91.0445
-91.8927 -92.4239 -93.3805 -94.2725 -95.4387 -96.2350
-97.6673 -99.0622 -100.0717 -102.1536 -103.6460 -105.1192
-106.3055 -106.4358 -106.0941 -104.2737 -101.3436 -96.4755
-89.2222 -81.1689 -72.9935 -65.6025 -59.1391 -53.3809
-48.1192 -42.8885 -37.0064 -30.5220 -24.3028 -18.4088
-13.3066 -8.6554 -4.9453 -2.3432 -0.3880 0.6161
1.5381 2.0210 3.1554 5.0924 7.0267 10.3650
13.8700 17.4708 22.1192 26.4698 30.6664 34.7172
38.2332 41.6079 44.0069 45.7043 46.8924 47.3671
48.0622 47.8727 47.3898 47.5210 47.4609 47.4819
47.0455 47.0856 47.2113 47.0655 47.4008 47.2614
47.2222 47.3161 47.7425 48.5306 49.1301 50.6234
52.1960 53.4588 55.7831 57.5807 59.3546 61.8165
64.1225 65.9474 66.3565 66.7356 66.3092 65.5402
64.8632 63.1349 61.3373 58.6887 55.2538 50.7438
45.8010 40.9986 35.1092 29.5049 24.6733 20.4540
16.9708 13.8758 11.2226 8.6515 6.2589 3.9830
1.7079 -0.5535 -3.1902 -6.0839 -9.1352 -12.4954
-15.9676 -19.2986 -22.3435 -24.8728 -26.7433 -27.6990
-27.6289 -26.6640 -24.7725 -22.4492 -20.1750 -18.2745
-16.7748 -15.4500 -14.3467 -13.0365 -11.5031 -9.4139
-6.3936 -2.6726 1.6898 6.1051 10.2215 13.9752
17.4976 20.6027 23.4235 26.3800 29.1644 32.3132
35.7572 39.0855 42.3791 45.3138 48.0481 50.6775
52.8688 54.6573 56.0495 56.7492 57.2303 57.4061
57.1938 57.0317 56.8121 56.6672 56.5579 56.7146
57.2093 57.8991 58.9314 59.9636 60.9358 62.2159
63.2692 64.1785 64.9839 65.3274 65.9606 66.6193
67.1460 67.7655 68.3104 68.8252 69.2999 69.3910
69.2270 68.8461 67.4503 65.6117 63.1107 59.5182
55.5266 50.5975 44.8302 38.5217 31.3832 24.1344
17.6254 12.2608 7.8210 3.6654 -0.9084 -5.5259
-9.1785 -11.9474 -14.0903 -15.6547 -16.8063 -17.4823
-17.6837 -17.8923 -17.9142 -17.7010 -17.2709 -17.0022
-16.9584 -16.7179 -17.0267 -17.4623 -17.8704 -18.1720
-18.7287 -18.8781 -19.4339 -20.2356 -19.9086 -21.6934
-22.5098 -22.6045 -23.3452 -23.3361 -24.5944 -24.7283
-25.3706 -26.4120 -26.7755 -27.5700 -27.3003 -26.6133
-25.1483 -23.1657 -20.7485 -17.2253 -14.0364 -11.0707
-7.8454 -5.4264 -2.6803 0.3865 2.8957 5.6801
8.3806 11.0830 13.7453 16.3128 18.8675 21.0150
22.9775 24.7378 26.0808 27.4566 28.6939 29.3818
29.8492 30.2965 30.4059 29.7927 28.8014 27.4530
25.6380 23.1853 20.4529 16.6928 12.5199 8.7206
4.3154 0.4623 -3.6395 -7.2785 -11.4578 -15.6161
-18.9908 -23.8671 -26.8245 -29.4795 -31.4867 -32.5809
-35.1593 -36.7055 -38.5514 -40.7244 -42.8181 -45.5113
-48.5016 -51.8208 -55.6720 -59.8321 -63.7490 -67.8891
-71.4151 -75.0741 -78.8461 -81.7070 -84.7109 -87.6292
-90.1402 -92.4708 -94.3559 -95.8938 -97.0919 -97.8481
-98.6208 -99.2731 -99.8025 -100.1961 -100.4821 -100.9486
-101.1308 -101.0762 -100.8384 -100.5249 -100.0812 -99.4425
-98.6489 -97.4253 -96.0951 -94.1271 -91.7518 -89.4412
-86.6286 -83.9773 -81.3970 -78.6245 -75.6652 -72.1875
-68.5158 -64.0386 -58.8644 -53.4697 -47.3306 -40.8772
-34.0913 -27.2279 -20.8975 -14.6190 -9.0813 -4.5540
-0.7191 2.3167 5.1640 7.7442 10.6434 13.7220
16.6458 19.9294 22.8814 26.2744 29.9954 34.0179
38.3530 42.6188 47.5990 52.0361 56.2791 59.9655
63.0751 65.6982 66.9482 67.9787 67.8867 67.4694
66.6986 64.9274 63.3949 61.4470 59.8115 58.2517
56.0687 54.8779 53.2425 51.5533 51.1196 49.8304
48.5457 47.3112 45.5026 43.9638 42.4823 41.1648
40.6127 40.9608 41.5001 42.0568 42.7147 43.6048
44.7774 45.9336 47.2611 48.4492 49.1398 49.5070
49.3339 48.6287 47.2311 44.9159 41.9931 38.4607
34.5484 30.4156 26.0259 21.6972 17.2820 12.6836
7.8930 3.0569 -1.3502 -5.2288 -8.7265 -12.0584
-15.0769 -17.9569 -20.8843 -23.7552 -26.7482 -29.7212
-32.7278 -35.6552 -38.4004 -40.9734 -43.1992 -45.2264
-46.9265 -48.3807 -49.7601 -51.0639 -52.4588 -54.1088
-55.8490 -57.4735 -59.1418 -60.5221 -61.4605 -62.0719
-62.2678 -62.2432 -62.0773 -61.8404 -61.5571 -61.2774
-61.0013 -60.5977 -60.2423 -59.7913 -59.1171 -58.1786
-56.8530 -55.1620 -53.0372 -50.7531 -48.4653 -46.2176
-44.1457 -42.1239 -40.0639 -37.9820 -35.9020 -33.8328
-31.8639 -30.0745 -28.5502 -27.3120 -26.2478 -25.2456
-24.0857 -22.5596 -20.6326 -18.4122 -16.2447 -14.2931
-12.7114 -11.8868 -11.5834 -11.8386 -12.5920 -13.3018
-14.1455 -15.0693 -15.8574 -16.5462 -17.1804 -17.6642
-18.0022 -18.2409 -18.0787 -17.5348 -16.5471 -14.9563
-12.9637 -10.5839 -8.0082 -5.4024 -2.6445 0.0962
2.9188 5.7423 8.2934 10.6350 12.5720 14.1601
15.3983 16.3386 17.1349 17.7390 18.3858 18.8141
19.1184 19.5366 20.0195 20.7912 21.6923 22.7984
24.2024 25.9426 27.8897 29.7484 31.8776 34.3003
36.9088 39.6658 42.2698 44.7680 47.0622 49.1942
51.2397 53.1111 54.8650 56.3127 57.3860 57.9810
58.1614 57.9436 57.3569 56.6590 55.7661 54.7939
53.9257 52.9827 52.0898 51.3545 50.6748 50.2639
50.1045 50.2239 50.5464 51.1896 52.0916 52.8852
53.9057 54.8459 55.7899 57.0709 58.1979 59.5045
60.9932 62.2825 63.5844 64.6459 65.6727 66.3642
66.6276 66.8344 66.4335 65.8130 64.8436 63.3822
61.5992 59.2339 56.3157 52.6621 48.2943 43.7305
39.2980 35.1798 31.4387 28.0877 25.4746 22.9263
20.7086 18.5320 15.9007 13.5646 10.9488 8.4405
5.9496 3.3392 0.9212 -1.5525 -3.7628 -6.2192
-8.6682 -11.0563 -13.6557 -16.2569 -19.2635 -22.2556
-25.3470 -28.7072 -32.0910 -35.3136 -38.2346 -41.1365
-43.7295 -46.1913 -48.4400 -50.3870 -52.0862 -53.3235
-54.2884 -54.7904 -55.1402 -55.3206 -55.2514 -55.2222
-54.9425 -54.4970 -53.8519 -52.8652 -51.6516 -50.1355
-48.4654 -46.6796 -44.6141 -42.2735 -39.4609 -36.0442
-32.0007 -27.3067 -22.0550 -16.3806 -10.5814 -5.0254
0.0822 4.6524 8.6312 12.1062 15.2832 18.1751
20.6296 22.4728 23.8304 24.9930 25.9022 26.8507
27.7928 28.9089 30.2145 31.4792 33.3880 35.1701
37.1928 39.6728 41.8622 44.3013 46.3567 48.4769
50.5961 52.3901 54.2880 55.7102 57.1643 58.3743
59.1469 59.8129 60.1364 60.5510 60.6840 60.6457
60.6175 60.1720 59.4230 58.1065 56.2697 54.3463
52.6608 50.9843 49.3234 47.3946 44.6767 41.5854
38.0503 34.2819 30.1783 24.8465 18.5862 11.9770
5.1510 -1.3862 -7.5435 -13.2525 -18.4003 -23.1763
-27.4257 -31.4264 -35.0171 -38.1722 -41.0832 -43.4977
-45.8073 -48.0714 -50.3720 -52.8101 -55.2646 -57.8403
-60.3969 -62.7685 -64.9506 -66.9824 -68.8356 -70.4883
-71.8623 -73.0267 -73.9123 -74.6457 -75.4046 -75.8730
-76.2556 -76.5125 -76.2665 -75.6215 -74.6520 -73.3464
-71.9633 -70.7525 -69.8186 -69.0933 -68.4483 -68.2551
-68.2351 -68.1622 -68.3590 -68.2915 -68.0300 -67.6055
-66.4283 -64.7127 -62.2909 -58.9736 -55.1369 -50.8529
-46.4157 -42.2265 -38.3980 -35.0970 -32.5003 -30.5560
-29.0336 -27.9165 -27.2195 -26.7895 -26.5298 -26.3631
-26.1198 -25.8018 -25.5175 -25.1485 -24.7476 -24.2338
-23.4958 -22.4443 -20.8827 -18.8901 -16.4392 -13.8179
-11.1921 -8.4150 -5.8020 -3.2235 -0.5285 2.0500
4.6558 7.2861 9.7343 11.9929 13.9664 15.4925
16.7845 17.8414 18.9311 20.3451 21.8075 23.3773
24.7749 25.7517 26.4678 26.6591 26.2018 25.4537
24.5937 23.9932 23.4284 22.6557 22.1282 21.6007
21.0723 20.6258 20.1858 20.1730 20.3388 20.2851
19.9953 19.2346 18.3517 17.2566 15.8307 14.3775
12.8915 11.9485 11.5111 11.4929 12.1808 13.1183
14.2463 15.5009 16.6699 17.7796 18.6834 19.6638
20.5713 21.2901 21.9753 22.4354 22.9074 23.2900
23.5442 23.7492 23.8358 23.9050 23.8012 23.6044
23.3839 23.1725 23.0313 22.8090 22.4865 21.9426
21.2993 20.6898 20.0566 19.6757 19.4862 19.4507
19.4425 19.2257 18.9660 18.5560 18.1970 18.0713
17.8873 17.7342 17.6385 17.5028 17.2495 16.7648
16.2765 15.7626 15.2724 14.6365 13.7664 13.0603
12.4371 12.0207 11.5888 11.0886 10.6960 9.9643
9.1425 8.3289 7.5098 6.9978 6.4821 5.9482
5.3906 4.7100 4.0977 3.4454 2.6974 1.8983
1.2533 0.7449 0.2492 -0.2500 -0.8240 -1.4791
-2.4358 -3.7059 -5.1855 -6.7326 -8.2814 -9.7037
-10.9255 -11.8767 -12.6247 -13.4019 -14.0797 -14.8997
-15.5493 -16.0368 -16.6991 -17.4827 -18.5860 -19.7422
-21.1016 -22.5384 -23.8276 -24.9811 -25.7173 -26.0471
-25.9150 -25.3537 -24.2923 -22.9329 -21.5362 -20.1832
-19.1254 -18.1368 -17.3541 -16.7984 -16.3045 -16.1178
-15.9838 -15.9428 -15.9865 -15.9820 -15.9401 -15.6585
-15.3706 -14.8586 -14.1470 -13.2933 -12.1617 -11.2269
-10.3577 -9.6397 -8.9846 -8.4252 -8.2393 -8.0808
-7.7701 -7.0394 -6.3697 -5.5050 -4.1548 -2.4173
0.1256 2.2011 4.2293 6.5399 8.8687 11.7232
14.0128 16.5448 19.4576 22.2647 24.9124 26.9396
28.7400 30.3017 31.8250 32.6705 33.0560 33.1990
32.9311 32.4437 31.2174 29.9245 28.4822 26.8677
25.1731 23.0939 21.1059 18.7397 15.8998 12.7838
9.5312 6.5591 3.5889 0.8966 -1.4996 -3.8612
-5.9941 -8.1826 -10.1779 -11.8981 -13.3859 -14.6496
-16.0455 -17.4604 -18.8708 -20.3796 -22.4560 -24.7976
-27.2576 -30.2560 -33.1278 -35.9978 -38.6327 -40.7893
-42.8393 -44.3108 -45.4688 -46.3972 -46.9949 -47.5962
-48.0217 -48.3406 -48.6586 -48.9246 -49.1451 -49.2198
-49.2098 -49.0594 -48.6631 -47.8467 -46.6851 -45.2455
-43.2757 -40.9469 -37.9785 -34.2274 -29.9643 -25.3022
-20.9124 -17.2908 -14.0773 -11.4105 -9.1746 -6.7857
-4.4687 -2.1326 -0.1263 1.7214 3.5017 4.8164
6.3635 7.9753 9.8002 12.0479 14.4369 17.0700
19.8316 22.7781 25.8276 28.8734 31.8828 34.9660
38.1613 41.1616 44.0872 46.8469 49.2741 51.5310
53.4033 54.8693 56.0647 57.0487 57.7757 58.3780
59.0804 59.7720 60.3833 61.0348 61.6954 62.2703
62.7240 62.7714 62.5928 62.0735 61.0357 59.9953
58.6404 56.8747 55.0033 52.8021 50.5908 48.3404
45.8029 43.5197 41.5936 40.0083 38.6671 37.3433
35.9976 34.7011 33.2816 31.7500 30.4480 29.1561
27.9534 26.6861 25.3805 23.9810 22.5497 21.5037
20.3885 19.4100 18.5071 17.4948 16.3013 14.7761
13.0505 11.0096 8.8922 6.6763 4.5908 2.6766
0.7869 -0.8995 -2.5231 -4.0547 -5.6263 -7.2290
-8.7587 -10.3459 -11.9266 -13.4691 -14.9552 -16.2125
-17.3058 -18.1941 -18.6661 -19.0078 -19.0970 -19.0542
-18.9558 -18.5804 -18.2515 -17.5736 -16.6470 -15.4289
-13.6823 -11.6478 -9.2588 -6.6904 -3.7056 -0.3509
3.3428 7.1876 10.8558 14.4273 17.6645 20.5837
23.0528 25.2094 27.0143 28.4165 29.7149 30.7107
31.7111 32.7999 33.9643 35.4904 37.1113 38.7094
40.2255 41.3471 42.2600 42.7556 42.7137 42.4067
41.2706 40.0068 38.7277 37.1879 36.0554 34.2505
32.5066 31.0069 29.0754 27.9183 26.5425 25.5749
24.6337 23.0621 21.7701 19.3293 17.1144 14.0831
10.5817 7.5723 3.4377 0.4383 -2.6403 -5.5586
-8.1079 -11.4334 -13.7859 -15.8978 -17.9342 -19.9113
-21.7335 -23.3653 -25.0162 -26.3901 -27.8579 -28.9294
-29.9334 -30.8127 -31.3958 -32.5110 -33.4221 -34.1072
-34.9327 -35.7882 -36.9016 -37.9320 -38.9106 -39.7415
-40.6198 -41.5701 -42.1186 -42.5522 -43.2064 -43.8478
-44.3334 -44.9330 -45.5115 -46.1192 -46.6221 -46.5702
-46.2896 -45.7793 -44.6605 -43.0542 -40.9805 -38.4258
-35.3134 -31.7674 -28.3707 -25.1162 -21.9866 -19.1785
-16.4580 -13.8831 -11.5188 -9.2520 -7.3778 -5.9993
-5.1766 -5.0116 -5.2877 -5.8562 -6.6398 -7.5017
-8.3745 -9.3403 -10.3298 -11.4686 -12.9492 -14.7012
-16.6793 -18.5452 -20.2590 -21.6002 -22.4101 -22.9386
-23.0570 -23.1618 -23.1035 -22.9641 -22.8957 -22.4757
-22.0775 -21.5710 -21.2193 -20.9523 -20.8056 -20.9924
-21.1901 -21.6757 -21.9791 -22.3280 -22.6287 -22.7553
-22.9849 -22.9558 -22.9776 -22.8310 -22.5594 -22.1376
-21.3039 -20.2990 -19.0480 -17.7916 -16.5497 -15.2559
-14.2155 -13.3299 -12.8196 -12.6137 -12.5299 -12.7977
-12.9863 -13.3125 -13.6205 -13.6159 -13.6314 -13.3699
-12.9417 -12.2028 -11.0875 -9.7591 -7.8795 -5.9115
-3.8806 -1.6129 0.2330 1.8821 3.0921 3.6515
3.8173 3.3372 2.4006 0.9601 -0.6717 -2.2105
-3.5389 -4.3671 -4.8227 -4.7726 -4.3790 -3.9024
-3.3248 -2.8173 -2.2816 -1.6830 -1.1290 -0.5167
0.0518 0.5502 0.9511 1.2190 1.4249 1.6763
2.1583 2.7642 3.5323 4.5090 5.4821 6.6310
7.6979 8.6901 9.7898 10.5889 11.4845 12.2863
12.9314 13.6511 14.0876 14.5459 14.7873 14.7973
14.7709 14.4894 14.1486 13.7058 13.3997 13.2394
13.0171 12.8767 12.4440 11.8827 11.4983 11.3115
11.7151 12.3447 13.0280 13.7924 14.4977 15.4634
16.4165 17.2356 17.8834 18.3426 18.9093 19.4350
19.8942 20.2586 20.7142 21.3083 21.8923 22.5884
23.2881 23.9988 24.6056 25.1295 25.8137 26.5645
27.4228 28.1471 28.7666 29.3388 29.6176 29.8828
29.7835 29.7580 29.9438 29.9147 30.0614 29.9074
29.8983 29.9666 29.6969 29.4209 28.7403 27.8930
26.8725 25.4831 23.7155 21.5899 19.5500 17.6284
15.8600 14.1790 12.4843 10.8689 9.0986 7.1744
5.1955 3.2448 1.5064 -0.0243 -1.2415 -2.0488
-2.5326 -2.8788 -3.4181 -4.3967 -5.8362 -7.6265
-9.5517 -11.3894 -13.1579 -14.9391 -16.5946 -18.1343
-19.4135 -20.4066 -21.4982 -22.4329 -23.2903 -23.9855
-24.3736 -24.9540 -25.3476 -25.5444 -25.6309 -25.7156
-26.0755 -26.6030 -27.4777 -28.3478 -29.3528 -30.3860
-31.0474 -31.6433 -31.8601 -31.9430 -31.9257 -31.6870
-31.5640 -31.3271 -31.0556 -30.6283 -30.0734 -29.4465
-28.6575 -27.9778 -27.2644 -26.6522 -26.3579 -26.2121
-26.2622 -26.3852 -26.2950 -25.9706 -25.2663 -24.2277
-22.9120 -21.3467 -19.8370 -18.4047 -17.1966 -16.0896
-15.0363 -14.0441 -12.8989 -11.7254 -10.3942 -9.3428
-8.4663 -7.6518 -7.0532 -6.0400 -5.0943 -4.1103
-2.9650 -2.1577 -1.4689 -1.0097 -0.7419 -0.4457
-0.0704 0.2677 0.6248 1.1651 1.7874 2.4215
3.1805 4.0570 4.9226 5.7954 6.4405 6.8359
6.9234 6.8150 6.7402 6.5471 6.3485 6.0023
5.4529 4.6165 3.5177 2.4426 1.5050 0.9620
0.7224 0.6623 0.6914 0.7261 0.7607 0.7844
0.8600 1.0641 1.4486 1.8550 2.2030 2.5647
2.9875 3.4932 4.1000 4.8134 5.7509 6.8524
8.0086 9.2222 10.3384 11.3971 12.2626 12.7993
13.1428 13.2084 13.0070 12.5378 11.7597 10.8076
9.7161 8.5280 7.3299 6.0845 4.8016 3.6026
2.3216 0.9977 -0.4117 -1.8322 -3.1068 -4.5937
-6.0424 -7.6277 -9.2750 -10.8394 -12.6324 -14.4118
-16.4910 -18.6029 -20.5509 -22.4779 -23.9356 -25.1747
-26.0949 -26.6088 -27.0953 -27.1937 -27.1445 -27.1117
-26.9796 -26.9760 -26.8803 -26.9641 -27.1782 -27.2784
-27.5098 -27.5964 -27.6101 -27.7631 -27.9262 -28.1221
-28.1330 -27.9225 -27.4396 -26.6288 -25.5527 -23.9856
-22.0650 -19.8155 -17.2953 -14.7078 -12.2159 -10.1959
-8.5359 -7.1519 -6.0322 -5.0418 -4.1753 -3.3362
-2.5207 -1.6606 -0.6766 0.3994 1.6157 3.0107
4.4192 5.8278 7.3585 8.7980 10.3132 12.0024
13.4757 15.1157 16.7484 18.0805 19.5218 20.7026
21.8406 22.7654 23.2182 23.7540 23.8706 23.9362
23.9289 23.6656 23.8816 24.0237 24.4455 24.9567
25.6391 26.9174 28.0144 29.3291 30.3641 31.3299
32.3139 32.8232 33.4191 33.9056 34.3876 34.6865
34.8924 35.1001 35.0901 34.9398 34.4022 33.7344
33.0684 32.3441 31.6981 30.9264 30.1519 29.3930
28.5438 27.8314 27.1298 26.5877 26.1340 25.6146
25.2192 24.8220 24.5131 24.2553 24.0029 23.7842
23.3396 22.7520 21.9584 20.8933 19.6970 18.2702
16.8043 15.1707 13.5307 11.7941 9.8325 8.0831
5.9001 3.6615 1.5523 -0.8557 -2.9604 -4.9357
-6.7506 -8.2640 -9.7208 -10.9171 -11.9521 -12.9489
-14.0158 -15.2002 -16.2170 -17.2174 -18.0583 -18.6360
-18.8464 -18.4947 -17.9918 -17.1208 -15.9555 -14.7601
-13.4636 -12.2318 -10.9307 -9.6733 -8.4461 -7.1614
-5.8940 -4.4654 -2.9849 -1.5289 -0.1859 0.8919
1.7365 2.2094 2.2996 2.0418 1.5161 0.8883
0.1877 -0.4373 -0.9485 -1.3266 -1.6318 -1.9079
-2.0327 -2.1247 -2.1602 -2.0591 -1.7502 -1.1844
-0.4792 0.3545 1.1890 1.9371 2.5357 2.8245
2.8518 2.6505 2.2815 1.7667 1.1362 0.4711
-0.3452 -1.3766 -2.6968 -4.2420 -6.0424 -7.7799
-9.1757 -10.1524 -10.3920 -10.0758 -8.9889 -7.3379
-5.3508 -3.0603 -0.7634 1.6593 3.8533 5.9707
8.0517 9.8939 11.6168 13.0418 14.2864 15.4344
16.5214 17.5564 18.4083 19.0652 19.6164 20.1139
20.6132 21.1845 21.7667 22.3352 22.8992 23.5051
24.0490 24.5301 25.0011 25.3382 25.5469 25.5970
25.4986 25.2626 24.8909 24.4017 23.7211 22.8701
21.8660 20.6488 19.2475 17.7096 16.1616 14.6619
13.3044 12.1628 11.2198 10.5701 10.1210 9.8148
9.4586 9.0595 8.5758 7.9981 7.5325 6.9376
6.3153 5.6147 4.7874 3.9319 3.2239 2.8987
2.8249 3.0654 3.4280 3.8681 4.2963 4.5460
4.8020 4.9879 5.1182 5.1246 4.9660 4.7082
4.1852 3.4518 2.6218 1.7416 0.8014 -0.1872
-1.1356 -2.0531 -2.9004 -3.6849 -4.4229 -5.1181
-5.7367 -6.1522 -6.3462 -6.3544 -6.2533 -6.1102
-6.0601 -6.1868 -6.4428 -6.9976 -7.8395 -8.9902
-10.5109 -12.2219 -14.1526 -16.1033 -17.9437 -19.6848
-21.1626 -22.3954 -23.3675 -24.1064 -24.6795 -25.0831
-25.3437 -25.5305 -25.7546 -26.0999 -26.6456 -27.4046
-28.3066 -29.2651 -30.1816 -30.9871 -31.6895 -32.2526
-32.6699 -33.0380 -33.3659 -33.6511 -33.8680 -33.9572
-33.9572 -33.8443 -33.6156 -33.2684 -32.7965 -32.2780
-31.7104 -31.2193 -30.8166 -30.4303 -30.0868 -29.7214
-29.3561 -28.9716 -28.5242 -28.0268 -27.5703 -27.1211
-26.6327 -26.1298 -25.4610 -24.7996 -24.0853 -23.3582
-22.7049 -21.9159 -21.1888 -20.2285 -19.1333 -17.9161
-16.6597 -15.6219 -14.3864 -13.1792 -11.6303 -9.7006
-7.5103 -4.9674 -2.4153 0.3216 2.8281 5.0767
7.0292 8.5317 9.9885 11.2031 12.3884 13.7141
15.1072 16.8219 18.7070 20.7087 22.8762 25.1085
27.3990 29.6312 31.7978 33.8278 35.7275 37.5187
38.8708 39.9705 40.8179 41.4511 42.1608 42.7348
43.4692 44.2819 44.9571 45.7561 46.3939 46.7292
46.8968 46.6882 46.1470 45.3726 44.2446 42.8379
41.0794 39.0932 36.9175 34.7445 32.6143 30.4568
28.4733 26.3741 24.3278 22.2277 20.1768 18.1368
15.6713 13.1868 10.5263 7.7884 5.0533 2.2216
-0.3769 -2.7768 -4.9753 -7.0052 -8.8830 -10.4720
-11.7594 -12.8964 -13.9734 -14.9464 -15.8047 -16.4798
-16.9891 -17.3745 -17.6661 -17.9285 -18.0469 -18.0706
-18.0761 -18.1963 -18.6036 -19.1229 -19.7461 -20.5433
-21.4371 -22.3345 -23.0042 -23.4361 -23.6520 -23.5217
-23.2721 -22.9978 -22.7226 -22.5933 -22.6006 -22.7026
-22.7254 -22.6279 -22.1951 -21.4990 -20.6990 -19.6075
-18.4650 -17.2268 -15.9066 -14.5426 -13.0010 -11.5314
-10.1994 -9.2318 -8.7343 -8.5903 -8.8445 -9.1315
-9.3147 -9.3903 -9.2591 -9.1461 -9.0313 -9.0149
-9.1789 -9.4285 -9.8613 -10.2931 -10.6047 -10.7788
-10.7988 -10.8334 -10.8917 -11.0275 -11.2461 -11.4311
-11.5185 -11.3236 -10.8425 -10.1327 -9.2380 -8.2385
-7.0723 -5.9088 -4.6597 -3.2739 -1.9072 -0.3629
1.1660 2.6438 4.0898 5.2851 6.3657 7.1812
7.7324 8.1160 8.3091 8.5032 8.7009 9.0444
9.5838 10.2207 11.0279 11.8652 12.7262 13.6246
14.4911 15.4331 16.3406 17.2171 18.0362 18.7205
19.3099 19.7473 20.1035 20.3368 20.5108 20.5782
20.4270 20.0635 19.3000 18.2640 16.8792 15.2319
13.6156 11.9327 10.4978 9.2650 8.1617 7.3481
6.4625 5.6461 4.7933 3.6945 2.6167 1.3913
0.0920 -1.2118 -2.5912 -3.9770 -5.4776 -6.9964
-8.5034 -9.9484 -11.2276 -12.3911 -13.4024 -14.2980
-15.0843 -15.8542 -16.6441 -17.3985 -18.1966 -19.0130
-19.8958 -20.8570 -21.8137 -22.7403 -23.5949 -24.4031
-25.1638 -25.9164 -26.5806 -27.1528 -27.7514 -28.1759
-28.5604 -28.7590 -28.8137 -28.7308 -28.3299 -27.8570
-27.1090 -26.5742 -25.7296 -25.0654 -24.9815 -24.5005
-24.5898 -24.7583 -24.9050 -25.2175 -25.1865 -25.1300
-24.7820 -24.2317 -23.4244 -22.1944 -20.8040 -19.2661
-17.4912 -15.5533 -13.4842 -11.3841 -9.4343 -7.6421
-6.1543 -4.9379 -3.8291 -2.8533 -1.9413 -1.1040
-0.2885 0.5178 1.2914 2.1578 3.1054 4.3035
5.8333 7.6136 9.6581 11.8867 14.1071 16.1170
17.9902 19.6011 20.8757 21.9536 22.6688 23.1143
23.3348 23.2884 23.2082 23.0333 22.7399 22.6041
22.4292 22.2306 22.0766 21.7468 21.4279 21.0598
20.7218 20.5560 20.4184 20.3219 20.1560 19.8727
19.5565 19.0117 18.2983 17.5831 16.6984 15.7718
14.7978 13.7911 12.9410 12.3861 12.1848 12.2668
12.6340 13.0513 13.4595 13.8522 14.1765 14.4826
14.7952 15.1869 15.5660 15.8912 16.1400 16.3240
16.5190 16.7076 16.9135 17.1914 17.5404 17.9212
18.3212 18.6993 18.9763 19.1731 19.3307 19.4401
19.5613 19.6633 19.7025 19.7353 19.6697 19.4875
19.2087 18.7632 18.1026 17.1788 16.0690 14.7798
13.2856 11.6556 9.8917 8.2381 6.7903 5.5430
4.6547 3.9704 3.4320 2.8662 2.1127 1.0886
-0.2407 -1.6775 -3.2191 -4.6987 -6.1192 -7.5314
-9.0019 -10.6492 -12.4176 -14.3383 -16.2880 -18.2660
-20.2067 -22.0298 -23.7983 -25.4519 -27.0336 -28.4486
-29.6376 -30.6407 -31.3723 -31.8115 -31.9873 -31.9299
-31.6830 -31.2484 -30.6880 -29.9883 -29.0526 -27.9511
-26.6810 -25.3471 -24.0178 -22.7030 -21.5159 -20.3934
-19.2991 -18.3516 -17.4833 -16.5649 -15.6947 -14.7845
-13.8871 -12.8621 -11.7132 -10.5725 -9.1721 -7.7444
-6.2110 -4.5409 -2.8462 -1.0887 0.4884 1.9070
2.9776 3.7120 4.2404 4.5529 5.0176 5.7383
6.8362 8.3741 10.2592 12.3329 14.2763 16.1532
17.8515 19.3294 20.7507 22.0837 23.4257 24.8307
26.0315 27.0602 27.9102 28.4542 28.8159 28.7330
28.3877 27.8838 27.3663 26.7705 26.0999 25.6443
24.9373 24.4909 23.5944 22.0883 20.9950 19.6584
18.1450 16.7164 15.4008 14.2664 13.4346 12.7121
12.0370 11.4748 10.6858 10.0571 9.2709 8.4181
7.7712 6.9248 6.2241 5.4624 4.7172 4.0101
3.1127 2.2280 1.1411 -0.0279 -1.2870 -2.5945
-3.8254 -5.0034 -6.1323 -7.3031 -8.3964 -9.5107
-10.6076 -11.6682 -12.7560 -13.7765 -14.8042 -15.7308
-16.5872 -17.4182 -18.1534 -18.9479 -19.7761 -20.7036
-21.7915 -22.8839 -24.0373 -25.1544 -26.1019 -26.9884
-27.7410 -28.4170 -29.1031 -29.8411 -30.6893 -31.6032
-32.6291 -33.5848 -34.4130 -35.0763 -35.4945 -35.7414
-35.7915 -35.7760 -35.7496 -35.7268 -35.7550 -35.8206
-35.8334 -35.6220 -35.3149 -34.9059 -34.3382 -33.7178
-32.9971 -32.2390 -31.4801 -30.6883 -29.8656 -29.0191
-28.1800 -27.3354 -26.4908 -25.7273 -25.1114 -24.6257
-24.2358 -23.8813 -23.5524 -23.1506 -22.6641 -22.1493
-21.5871 -21.0268 -20.4555 -19.8196 -19.0697 -18.1632
-17.1591 -16.0849 -14.8914 -13.6322 -12.2910 -10.8387
-9.2580 -7.5323 -5.7292 -3.8715 -1.9773 -0.0384
1.9123 3.9459 6.0706 8.1397 10.2198 12.2990
14.2770 16.1174 17.7438 19.1077 20.2211 21.1012
21.7891 22.4278 23.0674 23.7453 24.5562 25.3826
26.1370 26.8440 27.4071 27.8271 28.1259 28.2836
28.4385 28.6635 28.9186 29.2330 29.7304 30.3919
31.1372 31.9244 32.6861 33.4450 34.1439 34.9001
35.7447 36.5893 37.5077 38.3104 38.9527 39.3828
39.5431 39.5678 39.4165 39.1942 38.9291 38.6239
38.3168 37.8795 37.3356 36.6358 35.7256 34.6651
33.4971 32.3427 31.2968 30.3529 29.5593 28.9197
28.4013 27.9785 27.5904 27.2032 26.6975 26.0269
25.1568 24.0544 22.7843 21.4322 20.1111 18.8237
17.6056 16.4503 15.2668 14.0550 12.7931 11.4574
10.1318 8.8480 7.5615 6.2423 4.8665 3.3805
1.7906 0.1606 -1.4803 -3.0729 -4.5389 -5.8408
-6.9706 -7.9491 -8.8293 -9.6374 -10.3882 -11.0715
-11.6974 -12.3042 -12.8828 -13.4267 -13.8166 -14.0317
-14.1219 -14.0043 -13.7182 -13.2526 -12.5720 -11.7493
-10.8227 -9.9070 -9.0697 -8.3782 -7.8342 -7.2958
-6.6580 -5.8107 -4.7583 -3.5356 -2.1917 -0.8515
0.4997 1.8263 3.1000 4.3884 5.7031 7.1518
8.7289 10.4473 12.3123 14.1318 15.9176 17.5321
18.8851 19.9793 20.7720 21.4052 21.8380 22.1778
22.4348 22.5687 22.6826 22.7081 22.7136 22.6179
22.4494 22.2890 22.0859 21.8945 21.7096 21.6075
21.5410 21.4171 21.2331 21.0573 20.8340 20.5999
20.4468 20.2200 19.9403 19.5148 18.9435 18.1982
17.2443 16.1337 14.8344 13.5434 12.2268 10.8338
9.5154 8.1997 6.8631 5.5256 3.9795 2.2867
0.5082 -1.4088 -3.2456 -5.0669 -6.7743 -8.2330
-9.5714 -10.7823 -11.9330 -12.9243 -13.7935 -14.6526
-15.5045 -16.3181 -17.1135 -18.0010 -18.9540 -20.0345
-21.1133 -22.2094 -23.4029 -24.5983 -25.7827 -26.8779
-27.9402 -28.8468 -29.6303 -30.2745 -30.7446 -31.1974
-31.4981 -31.8734 -32.2625 -32.5568 -32.9540 -33.2692
-33.4624 -33.5289 -33.5499 -33.5954 -33.6173 -33.6273
-33.5808 -33.5106 -33.3703 -33.0706 -32.5558 -31.8178
-30.8639 -29.6785 -28.2626 -26.6345 -24.8997 -23.1586
-21.4757 -19.7009 -17.9015 -16.2050 -14.5085 -13.0571
-11.6366 -10.3747 -9.5210 -8.6291 -7.9740 -7.2961
-6.6064 -6.1645 -5.3600 -4.5855 -3.7974 -2.6895
-1.4923 -0.0682 1.3522 2.7544 4.1302 5.3775
6.3888 7.0239 7.5533 7.8448 7.9642 7.8913
7.5114 7.1560 6.6458 6.0600 5.5179 5.0186
4.8418 4.9056 5.1489 5.5543 6.0737 6.5985
6.8700 6.7516 6.2650 5.4933 4.5859 3.5344
2.4584 1.4662 0.4549 -0.3286 -1.1814 -1.8711
-2.2693 -2.7467 -2.7613 -2.7731 -2.5891 -2.0880
-1.8666 -1.3654 -0.9864 -0.8434 -0.7149 -0.9308
-1.1823 -1.5476 -2.1335 -2.7849 -3.5293 -4.1807
-4.7392 -5.2458 -5.7414 -6.3391 -6.7792 -7.1409
-7.5363 -7.8124 -8.0083 -8.0246 -7.9144 -7.7057
-7.5171 -7.5117 -7.6265 -7.9690 -8.4328 -8.9886
-9.5708 -10.0509 -10.5128 -10.7998 -10.8773 -10.7597
-10.5146 -10.2313 -9.7903 -9.3457 -8.8473 -8.2396
-7.7940 -7.3749 -7.1016 -7.0651 -7.0961 -7.2373
-7.3139 -7.2920 -7.1016 -6.6560 -6.0055 -5.2392
-4.3965 -3.4516 -2.5742 -1.7068 -0.8568 -0.1989
0.3705 0.8069 1.0748 1.1805 0.9682 0.5628
0.0188 -0.6690 -1.3633 -2.0321 -2.5222 -2.8812
-3.1053 -3.0798 -2.8985 -2.4129 -1.6794 -0.7565
0.3196 1.3309 2.3331 3.1695 4.0278 4.8341
5.4519 6.0979 6.4824 6.9078 7.3060 7.5584
7.9948 8.3082 8.6718 9.2066 9.7296 10.3519
10.9614 11.5482 12.1167 12.6206 13.1171 13.6264
14.3234 15.0432 15.7985 16.6258 17.3565 18.1775
18.8316 19.4548 20.0689 20.4343 20.9336 21.2279
21.3463 21.4593 21.3145 21.1687 20.7760 20.1482
19.4157 18.4454 17.3639 16.1594 15.0333 14.0447
13.1929 12.2872 11.2750 10.1808 8.8132 7.3919
5.6945 4.0299 2.5056 0.7982 -0.6724 -2.1994
-3.5542 -4.6211 -5.7463 -6.6228 -7.4656 -8.2336
-8.8504 -9.5520 -10.1506 -10.6809 -11.2047 -11.6594
-12.2379 -12.8511 -13.5536 -14.4474 -15.3193 -16.2495
-17.1798 -18.0617 -18.8708 -19.4730 -19.8766 -20.0871
-20.1281 -19.9923 -19.7299 -19.3491 -18.8653 -18.3441
-17.6845 -16.9301 -16.1866 -15.4996 -14.8846 -14.2878
-13.7047 -13.0560 -12.3180 -11.4643 -10.5058 -9.5582
-8.6398 -7.7560 -6.8568 -5.9083 -4.8833 -3.7653
-2.6237 -1.5113 -0.5300 0.2928 0.9041 1.2795
1.5082 1.6294 1.8061 2.0075 2.2890 2.6152
2.7929 2.9332 2.9359 2.8822 2.7273 2.4084
2.0549 1.5957 1.1702 0.7211 0.3029 -0.0534
-0.4142 -0.6656 -0.8907 -0.9927 -1.0036 -0.9963
-0.9189 -0.8515 -0.7093 -0.5399 -0.4205 -0.2656
-0.1900 -0.2392 -0.4423 -0.8933 -1.5020 -2.2208
-2.9998 -3.7597 -4.5040 -5.2056 -5.9144 -6.6479
-7.3804 -8.1503 -8.8619 -9.4431 -9.8896 -10.1656
-10.2449 -10.0927 -9.7492 -9.3001 -8.8254 -8.4108
-8.1593 -8.0755 -8.1092 -8.2313 -8.3015 -8.2304
-7.9607 -7.4532 -6.7234 -5.8606 -5.0278 -4.2898
-3.7112 -3.2757 -2.9414 -2.7099 -2.4767 -2.2243
-1.9992 -1.8416 -1.7578 -1.6293 -1.3924 -1.0453
-0.6225 -0.1733 0.3177 0.7897 1.2453 1.6844
2.1783 2.7632 3.3490 4.0069 4.6929 5.3526
5.9412 6.4204 6.8341 7.2195 7.6231 8.0358
8.4914 9.0189 9.6102 10.2690 10.9970 11.7195
12.3828 13.0014 13.5444 14.0100 14.4009 14.7653
15.1662 15.6592 16.2459 16.8719 17.4887 18.0481
18.5939 19.1032 19.5524 19.9569 20.2694 20.4890
20.6339 20.6594 20.5783 20.4107 20.0982 19.6909
19.1761 18.5730 17.9425 17.3102 16.7626 16.2970
15.8907 15.5253 15.1536 14.7646 14.3391 13.8690
13.4353 13.0453 12.6991 12.4012 12.1105 11.7771
11.3443 10.8988 10.4168 9.8665 9.3107 8.7094
8.1181 7.5040 6.8790 6.2786 5.5369 4.6723
3.6500 2.4629 1.2374 -0.0290 -1.2563 -2.4416
-3.5969 -4.6438 -5.5767 -6.3849 -7.0956 -7.7443
-8.2982 -8.7811 -9.2212 -9.6239 -10.0448 -10.4038
-10.7409 -11.1463 -11.6219 -12.2970 -13.1052 -13.9981
-14.9547 -15.9014 -16.8352 -17.7117 -18.5891 -19.4219
-20.2082 -20.9498 -21.5293 -21.9383 -22.1543 -22.1533
-21.9611 -21.6768 -21.3971 -21.1183 -20.8568 -20.6673
-20.5652 -20.5561 -20.5908 -20.6563 -20.7101 -20.7010
-20.5916 -20.3056 -19.9010 -19.4181 -18.8541 -18.2154
-17.5394 -16.8670 -16.2684 -15.8010 -15.5440 -15.5577
-15.7509 -16.0479 -16.3267 -16.4934 -16.5216 -16.3850
-16.1417 -15.8583 -15.5094 -15.0976 -14.6447 -14.1090
-13.4694 -12.7277 -11.9433 -11.1770 -10.4745 -9.8705
-9.3120 -8.7790 -8.2660 -7.7722 -7.3367 -6.9595
-6.6515 -6.3772 -6.1221 -5.8989 -5.6893 -5.5217
-5.2848 -4.9413 -4.5286 -3.9956 -3.4143 -2.7820
-2.0822 -1.3114 -0.4577 0.4489 1.4374 2.4961
3.6305 4.8687 6.2235 7.6129 9.0151 10.3882
11.6811 12.9575 14.1475 15.2617 16.2549 17.1040
17.8648 18.5490 19.1786 19.6971 20.1790 20.6036
20.9617 21.3480 21.7544 22.2072 22.8085 23.4044
24.0604 24.8103 25.4453 26.0958 26.6270 27.0798
27.4516 27.6311 27.7049 27.6356 27.5518 27.3723
27.1282 26.9031 26.6954 26.5770 26.4421 26.2717
26.0403 25.6859 25.1994 24.5580 23.7817 22.8496
21.7226 20.4871 19.1615 17.8222 16.4792 15.1180
13.8279 12.5013 11.2485 10.1352 9.1530 8.2747
7.4191 6.6957 6.0662 5.5815 5.2006 4.8189
4.4335 4.0289 3.7046 3.4149 3.1789 2.9502
2.6577 2.3352 1.9462 1.5908 1.2701 1.0041
0.8374 0.6925 0.6333 0.6661 0.7299 0.8538
0.9558 0.9941 1.0734 1.1964 1.3549 1.5198
1.6055 1.6665 1.7522 1.8889 2.0775 2.2506
2.3982 2.5421 2.7052 2.8765 3.0141 3.0861
3.1107 3.0788 2.9713 2.8210 2.5905 2.2935
1.9636 1.5564 1.1418 0.7756 0.4066 0.1442
0.0212 -0.0481 -0.0089 0.0768 0.1898 0.3929
0.6654 0.9651 1.2540 1.5182 1.7569 2.0567
2.3737 2.6534 2.8849 3.0498 3.1755 3.2311
3.3131 3.4024 3.4434 3.4179 3.2056 2.9942
2.8047 2.5341 2.3574 2.1132 1.9301 1.8645
1.7142 1.6905 1.6468 1.6067 1.6231 1.5256
1.4090 1.2568 1.0291 0.7193 0.3084 -0.2091
-0.8278 -1.5457 -2.3028 -3.0527 -3.7187 -4.2517
-4.7318 -5.1646 -5.6357 -6.2005 -6.8492 -7.5836
-8.3580 -9.1215 -9.8122 -10.4053 -10.9975 -11.6061
-12.1983 -12.8379 -13.4210 -14.0032 -14.5654 -15.0173
-15.5020 -15.8637 -16.1316 -16.3438 -16.3475 -16.3183
-16.2564 -16.1406 -16.0550 -15.9794 -15.9129 -15.7835
-15.5958 -15.3152 -14.9607 -14.5699 -14.0669 -13.5330
-12.9535 -12.3750 -11.7864 -11.1231 -10.5263 -9.8421
-9.0540 -8.1893 -7.1379 -6.0728 -4.9676 -3.8952
-2.9340 -1.9582 -1.0307 -0.1041 0.8854 1.9614
3.1659 4.4506 5.8109 7.2340 8.6763 10.1806
11.7285 13.2046 14.6177 15.8723 16.9647 18.0180
18.9081 19.8092 20.7212 21.5786 22.4678 23.2059
23.9029 24.4386 24.8322 25.1921 25.3652 25.4691
25.4427 25.3379 25.1183 24.7038 24.3029 23.8100
23.1986 22.5745 21.9641 21.4721 20.9518 20.3697
19.7492 18.9939 18.2194 17.3275 16.3471 15.2301
13.9190 12.6653 11.2714 9.8108 8.3166 6.6967
5.1332 3.5242 1.9525 0.4228 -1.0933 -2.5064
-3.8977 -5.2106 -6.4889 -7.7416 -9.0154 -10.4048
-11.7541 -13.1062 -14.4118 -15.6254 -16.7570 -17.7219
-18.6002 -19.3300 -19.9104 -20.3440 -20.6365 -20.8543
-20.9891 -21.1185 -21.1832 -21.2114 -21.2633 -21.2970
-21.3590 -21.3900 -21.4300 -21.4838 -21.5321 -21.6286
-21.6851 -21.7817 -21.8528 -21.8254 -21.8382 -21.7935
-21.7307 -21.6541 -21.4409 -21.2177 -20.9772 -20.7020
-20.4268 -20.1061 -19.8027 -19.4446 -18.9554 -18.4251
-17.8402 -17.3318 -16.9400 -16.5928 -16.3878 -16.2202
-16.1491 -16.0398 -15.9022 -15.8229 -15.5961 -15.4776
-15.2890 -15.0539 -14.8753 -14.5309 -14.2685 -13.9943
-13.7055 -13.5169 -13.3073 -13.1096 -12.8426 -12.4955
-12.1556 -11.8131 -11.5916 -11.4750 -11.4869 -11.6900
-11.9834 -12.3715 -12.7779 -13.2116 -13.5988 -13.8758
-14.0634 -14.1327 -14.1719 -14.0990 -13.9222 -13.6243
-13.2006 -12.6831 -12.0107 -11.3118 -10.6130 -9.9479
-9.3484 -8.7963 -8.3617 -8.0118 -7.7248 -7.4359
-7.1180 -6.8064 -6.4556 -6.1340 -5.8178 -5.4716
-5.1645 -4.8420 -4.5185 -4.1750 -3.8334 -3.5136
-3.1783 -2.9058 -2.7045 -2.5578 -2.4439 -2.3619
-2.2899 -2.1469 -1.9419 -1.7013 -1.4325 -1.1765
-0.9469 -0.7793 -0.6553 -0.5879 -0.6672 -0.8703
-1.2157 -1.6858 -2.2069 -2.7472 -3.1982 -3.5226
-3.7203 -3.7212 -3.5900 -3.3695 -3.0642 -2.7763
-2.5568 -2.4046 -2.2798 -2.1750 -2.1139 -2.1012
-2.1622 -2.3062 -2.5622 -2.9102 -3.2692 -3.6318
-4.0145 -4.3953 -4.7588 -5.1151 -5.3948 -5.5579
-5.6125 -5.5296 -5.3920 -5.1916 -4.9128 -4.5748
-4.1411 -3.6992 -3.2126 -2.7589 -2.3680 -2.0355
-1.7485 -1.3248 -0.9066 -0.4793 0.0073 0.4847
1.0113 1.5088 1.9070 2.3060 2.6905 2.9693
3.2855 3.5351 3.6572 3.7729 3.7985 3.7793
3.7301 3.5789 3.4158 3.2700 3.1662 3.2208
3.3967 3.6609 3.9926 4.3215 4.5666 4.7115
4.7716 4.7233 4.6413 4.5074 4.3142 4.0509
3.7284 3.4223 3.1207 2.8957 2.7563 2.7253
2.8137 2.9895 3.2583 3.5854 3.9389 4.2651
4.6213 5.0277 5.4896 6.0226 6.6212 7.2736
7.9050 8.5109 9.0175 9.4011 9.6425 9.7591
9.8913 9.9915 10.0780 10.1792 10.2466 10.3104
10.3423 10.3396 10.3250 10.2803 10.1573 9.9360
9.6508 9.2736 8.8472 8.4090 7.9170 7.4578
7.0095 6.6205 6.2934 5.9900 5.8014 5.6246
5.4743 5.2930 5.0251 4.7363 4.4275 4.1614
3.9400 3.8371 3.8216 3.8872 4.0667 4.2462
4.4357 4.5733 4.6671 4.7400 4.7236 4.7346
4.7337 4.7246 4.7355 4.7382 4.8621 5.0726
5.4134 5.9054 6.4657 7.0953 7.7267 8.3335
8.8820 9.3658 9.7949 10.1548 10.4983 10.8436
11.1607 11.4587 11.7584 12.0363 12.2896 12.4828
12.6131 12.6869 12.7178 12.7743 12.8399 12.9420
13.1333 13.3730 13.6472 13.9005 14.0736 14.1684
14.1757 14.1174 13.9679 13.7821 13.5616 13.3457
13.1224 12.8081 12.4774 12.0382 11.5699 11.1262
10.6497 10.2252 9.7669 9.2539 8.7291 8.1898
7.6276 7.0153 6.4003 5.7926 5.2132 4.7030
4.2328 3.8647 3.5814 3.3445 3.2407 3.2407
3.3227 3.4402 3.5504 3.6543 3.7409 3.8311
3.9049 4.0170 4.1609 4.3368 4.5582 4.7240
4.8971 5.0766 5.2096 5.3454 5.4411 5.4912
5.5167 5.5759 5.6215 5.6916 5.8484 6.0215
6.2174 6.3376 6.4124 6.3331 6.1873 5.8174
5.3436 5.2553 5.0211 4.8261 4.8535 4.8781
5.0603 5.2571 5.4776 5.6352 5.7045 5.7528
5.7063 5.5943 5.4011 5.0695 4.6139 4.0035
3.2600 2.4382 1.5754 0.7654 -0.0145 -0.7288
-1.3802 -2.0381 -2.6977 -3.3892 -4.0461 -4.6411
-5.2060 -5.7162 -6.2309 -6.7621 -7.2997 -7.9083
-8.5734 -9.2904 -10.0621 -10.8676 -11.7121 -12.6269
-13.6200 -14.6678 -15.7611 -16.8927 -18.0352 -19.1550
-20.2428 -21.2077 -22.0432 -22.7757 -23.3807 -23.9866
-24.5478 -25.0926 -25.7003 -26.2625 -26.8420 -27.3303
-27.7139 -28.0765 -28.2979 -28.4382 -28.5083 -28.4983
-28.3926 -28.1676 -27.8669 -27.4296 -26.8820 -26.1485
-25.1992 -24.2024 -23.1510 -22.0977 -20.9734 -19.6805
-18.2856 -16.7431 -15.1414 -13.5205 -11.9115 -10.4018
-9.0223 -7.7522 -6.5514 -5.4608 -4.4139 -3.3917
-2.3849 -1.3262 -0.2155 0.9653 2.2299 3.6066
5.0061 6.4147 7.8560 9.2145 10.5493 11.8595
13.1350 14.4261 15.6187 16.6875 17.6186 18.3912
19.0627 19.6504 20.2299 20.7866 21.2950 21.8088
22.2653 22.7728 23.2502 23.6028 24.0292 24.2762
24.4475 24.7235 24.8493 24.9714 25.0324 24.9859
24.9559 24.8584 24.7245 24.4885 24.2480 24.0667
23.8261 23.5810 23.2685 22.9241 22.5843 22.2253
21.8855 21.5293 21.1348 20.6254 20.0669 19.4437
18.7595 18.0734 17.2316 16.3296 15.3902 14.3926
13.4250 12.4574 11.5590 10.6598 9.7204 8.8175
7.9447 7.1739 6.4395 5.7589 5.1831 4.6264
4.0743 3.4584 2.8188 2.1482 1.4604 0.7798
0.0664 -0.6279 -1.3613 -2.1330 -2.8984 -3.6209
-4.2778 -4.8490 -5.2782 -5.6226 -5.8758 -6.0672
-6.2530 -6.4280 -6.6503 -6.8571 -7.0448 -7.2279
-7.3290 -7.3327 -7.2288 -7.1067 -6.9554 -6.8078
-6.6548 -6.4261 -6.2065 -5.8785 -5.5888 -5.3728
-5.1724 -5.1806 -5.2562 -5.4102 -5.6042 -5.7773
-6.0033 -6.1609 -6.3021 -6.4260 -6.5326 -6.5663
-6.5126 -6.4533 -6.3039 -6.2137 -6.1690 -6.0907
-6.0551 -6.0132 -5.9722 -5.9321 -5.9130 -5.8993
-5.8702 -5.7909 -5.5895 -5.3280 -5.0046 -4.6657
-4.3878 -4.1345 -4.0078 -3.9322 -3.8575 -3.8584
-3.8210 -3.8101 -3.7991 -3.7864 -3.8438 -3.8793
-3.8738 -3.7927 -3.6861 -3.5312 -3.3572 -3.2005
-2.9199 -2.5973 -2.2056 -1.7363 -1.3063 -0.7997
-0.3104 0.0732 0.4039 0.6964 1.0326 1.3988
1.8079 2.2507 2.7273 3.2584 3.8552 4.5386
5.2164 5.9061 6.5722 7.1708 7.7120 8.1293
8.4728 8.7324 8.9037 9.0732 9.2035 9.3247
9.5178 9.7411 10.0007 10.3224 10.7196 11.1478
11.5159 11.7464 11.8385 11.8385 11.7118 11.4968
11.1515 10.6203 9.9680 9.1416 8.2086 7.2656
6.2607 5.2676 4.3155 3.3907 2.5188 1.6168
0.7166 -0.1954 -1.1420 -2.0586 -2.9460 -3.8216
-4.6826 -5.5199 -6.3444 -7.1098 -7.9152 -8.7079
-9.5142 -10.4490 -11.3747 -12.3714 -13.3527 -14.3139
-15.2423 -16.0076 -16.7465 -17.3442 -17.7943 -18.1596
-18.4384 -18.6908 -18.7965 -18.8348 -18.9076 -18.9732
-19.0598 -19.1017 -19.0835 -18.9732 -18.7919 -18.5550
-18.1641 -17.7787 -17.3341 -16.8230 -16.3692 -15.8125
-15.2996 -14.8012 -14.2682 -13.7962 -13.2805 -12.7958
-12.2729 -11.7344 -11.2524 -10.7258 -10.2493 -9.8065
-9.3646 -8.9427 -8.5537 -8.2047 -7.7938 -7.3601
-6.8982 -6.4062 -5.9141 -5.3848 -4.8755 -4.3270
-3.8250 -3.3803 -2.9138 -2.5503 -2.2460 -1.9936
-1.7695 -1.5918 -1.4278 -1.2483 -1.1544 -1.0433
-1.0415 -1.1608 -1.2355 -1.4278 -1.6637 -1.9115
-2.2496 -2.6049 -2.9702 -3.2408 -3.4258 -3.5624
-3.6499 -3.7137 -3.8093 -3.9460 -4.1146 -4.4006
-4.6949 -5.0940 -5.5541 -5.9459 -6.4060 -6.8506
-7.4255 -8.0961 -8.7293 -9.4181 -9.9984 -10.4996
-10.9587 -11.2858 -11.5956 -11.8544 -12.0876 -12.3491
-12.5258 -12.7099 -12.9194 -13.0798 -13.2337 -13.3768
-13.4916 -13.5954 -13.7321 -13.8633 -13.9198 -13.9444
-13.9371 -13.8460 -13.7284 -13.5699 -13.3439 -13.1161
-12.9011 -12.6998 -12.5421 -12.4064 -12.2314 -12.0264
-11.7668 -11.5153 -11.2820 -11.0051 -10.7691 -10.5140
-10.1996 -9.8097 -9.2648 -8.6170 -7.8890 -7.1137
-6.3830 -5.7042 -5.1302 -4.6673 -4.2218 -3.7079
-3.0847 -2.4150 -1.7117 -1.0283 -0.3978 0.1898
0.7320 1.2805 1.8699 2.4713 2.9924 3.5191
3.9874 4.3655 4.7801 5.0871 5.4260 5.8233
6.1276 6.5294 6.8984 7.2301 7.6337 7.9909
8.4309 8.9038 9.4076 9.9835 10.5065 11.0668
11.5989 12.1064 12.6312 13.0840 13.5450 13.9760
14.3359 14.6949 15.0584 15.4147 15.8356 16.2292
16.5882 16.9544 17.1759 17.3754 17.5084 17.5722
17.6824 17.7298 17.7936 17.8064 17.7745 17.7462
17.6743 17.6834 17.7116 17.7572 17.7854 17.7454
17.6679 17.4556 17.2242 16.9227 16.5409 16.1491
15.6207 15.0221 14.2495 13.3420 12.3243 11.1481
9.9563 8.6744 7.4244 6.2008 4.9471 3.7991
2.6730 1.6170 0.6567 -0.3118 -1.2466 -2.1851
-3.1308 -4.0656 -5.0213 -5.8896 -6.7451 -7.5679
-8.3204 -9.1158 -9.8730 -10.6201 -11.3198 -11.9229
-12.4787 -12.9671 -13.4299 -13.8864 -14.3364 -14.7929
-15.2266 -15.6165 -16.0038 -16.4001 -16.7827 -17.1718
-17.5699 -17.9380 -18.2478 -18.4728 -18.5567 -18.5320
-18.4218 -18.2040 -17.9316 -17.5653 -17.0843 -16.5248
-15.8215 -15.0288 -14.1705 -13.2412 -12.2727 -11.2304
-10.1908 -9.1184 -7.9986 -6.8461 -5.6288 -4.4398
-3.1989 -2.0090 -0.8646 0.3189 1.3767 2.4892
3.6062 4.6914 5.8676 6.9354 8.0042 9.0592
9.9485 10.8605 11.7206 12.5670 13.4444 14.2672
15.1628 15.9965 16.8156 17.6110 18.1941 18.7453
19.2164 19.5343 19.8213 20.0099 20.1475 20.2705
20.2970 20.2951 20.2596 20.2104 20.1321 20.0428
19.9827 19.8715 19.7795 19.6711 19.5089 19.3230
19.0497 18.7818 18.5021 18.1623 17.8443 17.4389
16.9396 16.3529 15.6477 14.9370 14.1799 13.4364
12.7212 12.0224 11.3718 10.7086 10.1145 9.5241
8.9319 8.3679 7.7256 7.0478 6.3289 5.5335
4.7335 3.9573 3.2503 2.6407 2.0713 1.5738
1.1757 0.8413 0.5753 0.3912 0.2455 0.1462
0.1043 0.0496 0.0068 -0.0461 -0.1189 -0.1955
-0.2893 -0.3148 -0.2283 -0.0834 0.1134 0.3421
0.5972 0.9389 1.3371 1.7243 2.0814 2.4350
2.7794 3.1329 3.5146 3.8818 4.2526 4.6034
4.9050 5.1829 5.5145 5.8672 6.2434 6.7774
7.3887 7.9891 8.5914 9.1144 9.5654 10.0009
10.3125 10.5968 10.9084 11.1744 11.4496 11.7184
12.0327 12.3935 12.7707 13.1479 13.4787 13.7174
13.8668 13.9142 13.8295 13.7156 13.5443 13.3393
13.1206 12.8546 12.6168 12.3562 12.0647 11.7677
11.4588 11.1363 10.7509 10.2990 9.7760 9.1892
8.5843 8.0030 7.4618 6.9343 6.4277 5.9257
5.3890 4.8305 4.2447 3.6424 2.9992 2.2421
1.3383 0.3215 -0.7719 -1.9226 -3.0587 -4.1512
-5.2199 -6.2485 -7.1778 -8.0689 -8.9345 -9.7180
-10.4341 -11.0892 -11.7142 -12.2363 -12.6827 -13.1155
-13.5073 -13.8754 -14.2516 -14.6343 -15.0115 -15.3605
-15.6511 -15.9171 -16.1413 -16.3262 -16.4519 -16.5613
-16.6724 -16.7480 -16.8364 -16.8738 -16.8419 -16.7170
-16.4592 -16.1467 -15.7540 -15.2930 -14.8010 -14.3007
-13.8215 -13.3413 -12.9031 -12.4803 -12.0658 -11.6348
-11.1556 -10.6872 -10.2116 -9.7816 -9.3980 -9.0582
-8.7939 -8.5980 -8.4969 -8.4632 -8.5461 -8.7274
-8.9524 -9.1921 -9.4144 -9.6294 -9.8034 -9.9729
-10.1077 -10.2015 -10.2899 -10.3291 -10.3209 -10.2380
-10.0712 -9.8188 -9.4407 -9.0152 -8.5724 -8.0868
-7.6349 -7.2094 -6.7721 -6.2801 -5.7279 -5.1995
-4.6510 -4.0879 -3.5139 -2.8871 -2.2921 -1.7491
-1.2808 -0.9045 -0.5737 -0.2694 0.0595 0.4422
0.8476 1.2221 1.5583 1.8736 2.1487 2.4366
2.7774 3.1591 3.5947 4.0366 4.4702 4.8912
5.2711 5.6028 5.8816 6.0620 6.1403 6.0793
5.8679 5.5664 5.1345 4.6944 4.1851 3.6722
3.2777 2.8012 2.4094 1.9484 1.4154 0.9689
0.4113 -0.0141 -0.4096 -0.7703 -0.9999 -1.3033
-1.4856 -1.7124 -1.9721 -2.1698 -2.3748 -2.4212
-2.4650 -2.4367 -2.3520 -2.2773 -2.1370 -2.0249
-1.8281 -1.5948 -1.3242 -0.9680 -0.6427 -0.3038
0.0078 0.2356 0.4652 0.6292 0.7714 0.9736
1.1212 1.3472 1.5805 1.7126 1.8501 1.8921
1.9322 1.9495 1.9085 1.9085 1.8693 1.8711
1.8875 1.9076 1.9349 1.9030 1.9477 1.9714
1.9550 2.0024 1.9896 1.9678 1.9268 1.7801
1.6580 1.5113 1.3619 1.2671 1.1041 0.9455
0.8134 0.6330 0.4025 0.1511 -0.1040 -0.3974
-0.6698 -0.9623 -1.3194 -1.6183 -1.9855 -2.3891
-2.7726 -3.2072 -3.5334 -3.8851 -4.1684 -4.3170
-4.4582 -4.4436 -4.4235 -4.3661 -4.2486 -4.1939
-4.1156 -4.0791 -4.0636 -4.0572 -4.1110 -4.1593
-4.2786 -4.4399 -4.6185 -4.8271 -5.0029 -5.2444
-5.4803 -5.7236 -5.9851 -6.1883 -6.3678 -6.4333
-6.4379 -6.3869 -6.2894 -6.1664 -5.9823 -5.8639
-5.7746 -5.7646 -5.8784 -6.0670 -6.3905 -6.7385
-7.1139 -7.4783 -7.7835 -8.0642 -8.2400 -8.3748
-8.3931 -8.2737 -8.0705 -7.7598 -7.4446 -7.1585
-6.9854 -6.8979 -6.8751 -6.9553 -7.0591 -7.2496
-7.4855 -7.7224 -7.9684 -8.1597 -8.2736 -8.2408
-8.1133 -7.8563 -7.5183 -7.1420 -6.6281 -6.0742
-5.4118 -4.7722 -4.2474 -3.7964 -3.5631 -3.4438
-3.4948 -3.6360 -3.7936 -4.0332 -4.2173 -4.4287
-4.5735 -4.5999 -4.5680 -4.4305 -4.2664 -4.0532
-3.8264 -3.6059 -3.3389 -3.1166 -2.9872 -2.9244
-2.9207 -3.0155 -3.1895 -3.3589 -3.5821 -3.7853
-3.9019 -3.9858 -3.9475 -3.8217 -3.5739 -3.2067
-2.8086 -2.3211 -1.8091 -1.2223 -0.5882 0.0396
0.7393 1.4144 2.0914 2.7328 3.3223 3.9009
4.3637 4.7929 5.1828 5.5145 5.8461 6.1067
6.3236 6.5158 6.6133 6.6388 6.6051 6.5295
6.4739 6.4293 6.3810 6.3245 6.2498 6.1879
6.1870 6.2352 6.3109 6.4293 6.5806 6.6926
6.7336 6.7728 6.7646 6.7318 6.7646 6.7765
6.8084 6.8239 6.7191 6.5560 6.2800 5.9675
5.6795 5.3998 5.2167 5.0454 4.8887 4.7448
4.5471 4.3393 4.0615 3.7808 3.5558 3.3390
3.2160 3.1331 3.0638 3.0511 3.0547 3.1322
3.2798 3.4921 3.7736 4.0697 4.3294 4.5216
4.6565 4.7312 4.7968 4.8743 4.9225 4.9636
4.9599 4.9353 4.8643 4.7540 4.6893 4.6128
4.6365 4.6556 4.6602 4.7468 4.7349 4.7586
4.7440 4.6812 4.6967 4.6529 4.6211 4.5445
4.4498 4.3222 4.0881 3.8357 3.4877 3.1314
2.7296 2.2887 1.9160 1.5197 1.2072 0.9165
0.6213 0.4100 0.1476 -0.1112 -0.3189 -0.5011
-0.6578 -0.8555 -1.0305 -1.1981 -1.4122 -1.6300
-1.8623 -2.0755 -2.2650 -2.4600 -2.6340 -2.7788
-2.9128 -3.0594 -3.1943 -3.2936 -3.3546 -3.3893
-3.3583 -3.2836 -3.1952 -3.0621 -2.9346 -2.7788
-2.5865 -2.3788 -2.1146 -1.8558 -1.5515 -1.1169
-0.5720 0.0803 0.7509 1.4406 2.1212 2.7827
3.4515 4.0619 4.6742 5.2546 5.7976 6.3607
6.8481 7.3119 7.8130 8.3050 8.7906 9.3254
9.8849 10.4005 10.9226 11.3982 11.8647 12.3330
12.7275 13.1576 13.5712 13.9858 14.4113 14.7429
15.0628 15.2969 15.4336 15.5320 15.5338 15.5065
15.4208 15.2596 15.0847 14.8314 14.5362 14.2583
13.9440 13.6096 13.2798 12.9199 12.5354 12.1418
11.6808 11.1551 10.6066 10.0089 9.4149 8.8272
8.2204 7.5927 6.9476 6.3235 5.6502 4.9787
4.2763 3.5018 2.7666 2.0176 1.2951 0.5890
-0.1317 -0.8123 -1.5320 -2.2937 -3.0326 -3.7588
-4.4612 -5.1072 -5.7431 -6.3600 -6.9330 -7.4688
-7.9362 -8.3762 -8.7735 -9.1142 -9.4040 -9.5898
-9.7502 -9.8850 -9.9488 -10.0299 -10.0636 -10.0727
-10.0973 -10.1046 -10.1938 -10.3433 -10.5400 -10.7551
-10.9318 -11.1268 -11.3254 -11.5231 -11.7126 -11.8547
-11.9623 -12.0315 -12.0233 -11.9349 -11.7509 -11.4730
-11.1313 -10.7331 -10.2785 -9.7810 -9.2489 -8.6895
-8.1091 -7.5196 -6.9884 -6.5320 -6.1311 -5.7894
-5.5060 -5.3020 -5.1953 -5.2063 -5.2792 -5.3666
-5.5197 -5.6992 -5.9233 -6.2322 -6.5948 -7.0266
-7.4904 -7.9696 -8.4206 -8.7942 -9.1003 -9.2816
-9.3335 -9.2980 -9.1358 -8.9618 -8.8042 -8.6402
-8.5837 -8.4880 -8.4634 -8.5244 -8.4907 -8.5226
-8.5226 -8.5545 -8.6911 -8.7795 -8.9244 -9.0647
-9.1622 -9.1940 -9.1093 -9.0428 -8.9617 -8.9435
-9.0118 -9.0756 -9.2131 -9.3298 -9.4373 -9.5083
-9.5120 -9.5357 -9.4555 -9.2714 -8.9826 -8.5863
-8.1863 -7.7590 -7.3289 -6.8469 -6.3167 -5.8538
-5.4320 -5.0548 -4.6812 -4.2812 -3.9286 -3.6261
-3.3874 -3.2298 -3.1277 -3.0776 -3.0321 -3.0029
-2.9929 -2.9473 -2.8699 -2.6676 -2.3851 -2.0981
-1.7929 -1.5059 -1.1979 -0.8991 -0.6194 -0.3761
-0.2239 -0.0855 0.0403 0.1268 0.2280 0.3255
0.3811 0.4202 0.4749 0.5806 0.7501 0.9223
1.0836 1.2585 1.4043 1.5236 1.5984 1.6312
1.6667 1.6713 1.6421 1.5811 1.5073 1.4408
1.4162 1.4517 1.6011 1.8918 2.2435 2.6535
3.0853 3.5263 3.9682 4.3873 4.8010 5.1891
5.5590 5.9044 6.2488 6.5950 6.9512 7.3339
7.7129 8.0746 8.3926 8.6778 8.9092 9.0541
9.1835 9.3065 9.4067 9.5179 9.6172 9.7338
9.8313 9.8887 9.9297 9.9917 10.0500 10.1001
10.2605 10.3562 10.5138 10.6696 10.6541 10.7607
10.7616 10.7252 10.7680 10.7297 10.7899 10.8227
10.8819 10.9776 10.9621 11.0368 11.0514 10.9922
10.9393 10.7845 10.6341 10.4483 10.2469 10.0574
9.8415 9.6684 9.4934 9.2976 9.0953 8.9076
8.6899 8.3765 8.0266 7.6020 7.0936 6.5779
6.1588 5.8427 5.5120 5.2222 4.9115 4.5608
4.2583 3.9276 3.6078 3.2907 2.9627 2.6356
2.2575 1.8703 1.3974 0.9155 0.4763 0.0536
-0.2298 -0.5341 -0.8666 -1.2384 -1.7413 -2.2224
-2.6907 -3.1116 -3.4979 -3.8988 -4.2723 -4.6887
-5.1233 -5.5871 -6.0462 -6.4034 -6.7232 -6.9710
-7.1951 -7.4584 -7.6889 -7.9176 -8.1691 -8.4397
-8.7230 -9.0164 -9.3590 -9.7316 -10.1125 -10.4477
-10.6445 -10.7976 -10.9224 -11.0573 -11.2258 -11.3023
-11.4026 -11.5082 -11.6294 -11.7807 -11.7597 -11.6321
-11.4745 -11.3278 -11.2531 -11.2230 -11.2385 -11.2248
-11.1638 -11.0271 -10.7993 -10.5743 -10.2991 -10.0048
-9.7324 -9.4080 -9.1028 -8.7694 -8.3821 -7.9503
-7.4464 -6.8842 -6.2392 -5.6233 -5.0010 -4.3459
-3.6844 -2.8990 -2.0663 -1.2107 -0.3652 0.3710
1.0488 1.6438 2.1668 2.6442 3.0925 3.6045
4.1603 4.7325 5.2892 5.8759 6.5365 7.2116
7.9305 8.6731 9.4229 10.1536 10.8588 11.5613
12.1863 12.7594 13.2806 13.7343 14.1416 14.5033
14.8896 15.3379 15.8445 16.3529 16.8276 17.3123
17.7597 18.1915 18.6972 19.2457 19.8233 20.3855
20.8483 21.1754 21.3568 21.4078 21.3467 21.2219
21.0333 20.8247 20.6625 20.5587 20.4712 20.3874
20.2862 20.1104 19.9391 19.7150 19.4754 19.1747
18.7356 18.3055 17.7871 17.2468 16.6355 15.9421
15.2834 14.4962 13.6644 12.7879 11.8768 11.0322
10.1931 9.4040 8.6815 8.0474 7.4415 6.8775
6.3837 5.8544 5.3305 4.8221 4.3684 3.9857
3.5939 3.1885 2.7366 2.2719 1.8665 1.4811
1.0866 0.6520 0.1964 -0.2135 -0.6071 -1.0062
-1.4226 -1.8544 -2.3510 -2.8976 -3.4407 -4.0611
-4.7499 -5.4724 -6.1694 -6.7762 -7.3411 -7.8513
-8.2804 -8.6731 -8.9966 -9.2817 -9.5870 -9.8093
-10.0516 -10.2812 -10.4762 -10.7085 -10.8898 -11.1522
-11.4028 -11.6706 -12.0287 -12.3986 -12.8560 -13.3252
-13.9065 -14.5470 -15.2011 -15.9072 -16.5760 -17.2775
-17.9007 -18.5039 -19.1134 -19.7029 -20.3534 -20.9302
-21.4896 -21.9761 -22.3688 -22.7396 -23.0321 -23.3291
-23.5887 -23.8174 -24.0680 -24.2502 -24.3777 -24.4433
-24.5080 -24.5773 -24.5909 -24.5754 -24.5035 -24.4269
-24.3659 -24.3568 -24.3832 -24.3932 -24.4497 -24.5180
-24.5845 -24.6155 -24.5973 -24.5408 -24.4223 -24.2765
-24.0879 -23.8447 -23.5914 -23.2752 -22.9654 -22.7376
-22.5153 -22.3112 -22.0552 -21.7181 -21.2999 -20.8352
-20.3860 -19.8876 -19.4139 -18.9064 -18.3715 -17.8185
-17.1352 -16.4728 -15.7894 -15.1097 -14.4975 -13.8141
-13.1481 -12.5012 -11.8397 -11.1874 -10.4904 -9.8043
-9.1018 -8.4331 -7.8254 -7.2231 -6.6801 -6.1243
-5.6205 -5.1175 -4.5882 -4.0461 -3.4347 -2.9318
-2.3441 -1.6917 -1.0731 -0.3351 0.3574 1.0990
1.8844 2.6179 3.4397 4.2779 5.1580 6.0272
6.8600 7.6873 8.3697 9.0330 9.6016 10.0662
10.5291 10.8088 11.0420 11.1842 11.2051 11.2717
11.2817 11.3154 11.3245 11.2817 11.3300 11.3892
11.5077 11.6370 11.7637 11.9304 12.0051 12.0799
12.1354 12.1437 12.1455 12.0963 12.0781 12.0544
11.9897 11.8785 11.7355 11.6262 11.5004 11.4103
11.2845 11.0659 10.7825 10.3917 10.0381 9.6546
9.1635 8.5922 7.9198 7.3094 6.7846 6.3509
5.9856 5.6002 5.2649 4.9906 4.7683 4.6226
4.5916 4.6372 4.7046 4.8759 5.1119 5.4134
5.8098 6.1943 6.5797 6.9432 7.2676 7.5938
7.8388 8.0056 8.0757 8.0767 8.1213 8.1778
8.2935 8.3573 8.3746 8.4156 8.3801 8.3774
8.3318 8.2380 8.1460 7.9947 7.8644 7.7041
7.5793 7.5228 7.4390 7.4034 7.4126 7.4618
7.5237 7.5939 7.7305 7.8891 8.0658 8.2198
8.3729 8.4941 8.5296 8.5141 8.3593 8.1889
8.0212 7.8135 7.6040 7.2942 6.9607 6.5826
6.2282 5.9394 5.6797 5.5303 5.4164 5.4292
5.5267 5.5649 5.6132 5.6579 5.6843 5.7353
5.8410 5.9978 6.1882 6.4014 6.6365 6.8661
7.0802 7.2533 7.3453 7.3736 7.4109 7.5294
7.6761 7.7617 7.7317 7.6624 7.6451 7.6861
7.7371 7.6889 7.5978 7.6078 7.6679 7.6998
7.6861 7.6278 7.6032 7.5850 7.5468 7.5905
7.6844 7.8010 7.9650 8.1162 8.2547 8.3704
8.4442 8.4752 8.4862 8.5609 8.6584 8.7158
8.7058 8.6301 8.4835 8.2329 7.8876 7.4721
6.9947 6.4444 5.8577 5.2336 4.5630 3.8942
3.2947 2.7053 2.1067 1.5764 1.0361 0.5277
0.0257 -0.5109 -1.0348 -1.5869 -2.0644 -2.5144
-2.9345 -3.3007 -3.6788 -3.9941 -4.3111 -4.6200
-4.8961 -5.1867 -5.4227 -5.6267 -5.7862 -5.9083
-6.0340 -6.1333 -6.2736 -6.4413 -6.6481 -6.9023
-7.1665 -7.4462 -7.7131 -7.9956 -8.3117 -8.5960
-8.7582 -8.8283 -8.8383 -8.8146 -8.7837 -8.7035
-8.6178 -8.5158 -8.4083 -8.3117 -8.2160 -8.1695
-8.0912 -7.9709 -7.8379 -7.6921 -7.5746 -7.4670
-7.3777 -7.2611 -7.0807 -6.8302 -6.4994 -6.1277
-5.6840 -5.2494 -4.9195 -4.6735 -4.4949 -4.3328
-4.1879 -4.0776 -4.0111 -3.9756 -3.9838 -3.9856
-3.9455 -3.9318 -3.8999 -3.8462 -3.7204 -3.5528
-3.3879 -3.2230 -3.0663 -2.8257 -2.6089 -2.4540
-2.3783 -2.3656 -2.3392 -2.3300 -2.2899 -2.2663
-2.2398 -2.1934 -2.1332 -1.9883 -1.8344 -1.7214
-1.6603 -1.6467 -1.6120 -1.5401 -1.4562 -1.4216
-1.4061 -1.3150 -1.2011 -1.0836 -0.9615 -0.8521
-0.7200 -0.6189 -0.6034 -0.6735 -0.8002 -0.9323
-1.0398 -1.0698 -0.9769 -0.8056 -0.6343 -0.5286
-0.5104 -0.5523 -0.6316 -0.7145 -0.7546 -0.7345
-0.6562 -0.5113 -0.3801 -0.2771 -0.1623 -0.0375
0.1274 0.2668 0.3771 0.5338 0.7443 0.9721
1.1834 1.3593 1.4759 1.5579 1.6417 1.7210
1.7711 1.7921 1.8349 1.9133 2.0235 2.1101
2.1675 2.2604 2.3998 2.6231 2.8782 3.1524
3.4376 3.6645 3.8586 4.0235 4.2112 4.4162
4.5875 4.7105 4.7861 4.8316 4.8125 4.7023
4.5438 4.4162 4.2586 4.0509 3.8049 3.5033
3.2773 3.0632 2.8263 2.6842 2.5694 2.4938
2.4273 2.2651 2.0301 1.7267 1.4451 1.1645
0.8338 0.5140 0.1359 -0.2395 -0.6522 -1.1296
-1.5669 -2.0407 -2.4407 -2.7368 -2.9792 -3.1641
-3.3336 -3.4119 -3.3992 -3.3153 -3.1732 -2.9718
-2.7194 -2.4416 -2.1391 -1.8721 -1.6461 -1.4484
-1.2534 -1.0849 -0.9601 -0.7815 -0.5418 -0.3013
-0.0589 0.2399 0.5734 0.8804 1.1747 1.4572
1.7669 2.1059 2.4248 2.7674 3.0671 3.3222
3.5865 3.7933 3.9728 4.1031 4.2261 4.3773
4.4848 4.5413 4.5596 4.5596 4.5477 4.6224
4.7536 4.8685 4.9614 4.9687 4.9496 4.9177
4.8448 4.7610 4.6726 4.6024 4.5232 4.3811
4.1688 3.9191 3.6303 3.2896 2.8905 2.4514
2.0313 1.5995 1.1703 0.7904 0.4478 0.1517
-0.0979 -0.3393 -0.6172 -0.9024 -1.1475 -1.3087
-1.4199 -1.5438 -1.6841 -1.8517 -2.0358 -2.2362
-2.4312 -2.5997 -2.8066 -3.0653 -3.3131 -3.5090
-3.6530 -3.7559 -3.8580 -3.9418 -3.9609 -3.9600
-3.9609 -4.0046 -4.1367 -4.3490 -4.6233 -4.9540
-5.3048 -5.6218 -5.8997 -6.1293 -6.3388 -6.5120
-6.6687 -6.8090 -6.8818 -6.9201 -6.9119 -6.9046
-6.9456 -6.9766 -7.0267 -7.0668 -7.0704 -7.0704
-7.0750 -7.1178 -7.1478 -7.1497 -7.1250 -7.1096
-7.1387 -7.1414 -7.1606 -7.2252 -7.2817 -7.3154
-7.3291 -7.3418 -7.3737 -7.4958 -7.6662 -7.8329
-8.0671 -8.3103 -8.5463 -8.8297 -9.1166 -9.3745
-9.5922 -9.8091 -10.0432 -10.2537 -10.4824 -10.7202
-10.9297 -11.1374 -11.3452 -11.5538 -11.8035 -12.0695
-12.3319 -12.6298 -12.9287 -13.1892 -13.3933 -13.5591
-13.6903 -13.7778 -13.8580 -13.8980 -13.9190 -13.9591
-13.9737 -13.9609 -13.9454 -13.8998 -13.8716 -13.8279
-13.6875 -13.5472 -13.3841 -13.1718 -12.9176 -12.6033
-12.2607 -11.8780 -11.4644 -10.9952 -10.5086 -10.0203
-9.5529 -9.1620 -8.8012 -8.4823 -8.1698 -7.8290
-7.5256 -7.2131 -6.8268 -6.3803 -5.8619 -5.3152
-4.7604 -4.1855 -3.6005 -3.0156 -2.4279 -1.7874
-1.1241 -0.4462 0.2043 0.7920 1.3414 1.8562
2.3664 2.8365 3.2702 3.6784 4.0930 4.5103
4.8838 5.2774 5.7002 6.1330 6.5475 6.9548
7.3420 7.6892 8.0044 8.2413 8.4499 8.6376
8.7998 8.9328 9.0212 9.0668 9.0632 9.0786
9.0504 8.9584 8.7989 8.5411 8.2559 7.9443
7.6637 7.4250 7.2628 7.1544 7.0533 7.0415
7.0050 6.9622 6.9276 6.8328 6.7800 6.7126
6.6406 6.5723 6.4994 6.5213 6.6188 6.7709
6.9650 7.1691 7.3741 7.5016 7.4825 7.3677
7.2274 7.1281 7.0488 6.9359 6.8038 6.6544
6.6061 6.6507 6.6726 6.6607 6.5788 6.4148
6.1970 5.9264 5.5939 5.3050 5.0773 4.8732
4.6791 4.3949 4.0796 3.8099 3.5649 3.3344
3.0874 2.8606 2.6902 2.4971 2.2957 2.1226
1.9276 1.7163 1.4730 1.1805 0.8872 0.6448
0.4289 0.2266 0.0599 -0.0923 -0.2617 -0.4467
-0.6389 -0.7892 -0.8840 -0.9551 -0.9696 -0.9441
-0.8739 -0.7418 -0.6006 -0.4366 -0.2662 -0.1223
0.0436 0.2085 0.3178 0.3871 0.4290 0.4581
0.4700 0.5092 0.5793 0.6030 0.5866 0.5475
0.4682 0.3461 0.2031 0.0691 -0.0730 -0.1942
-0.2570 -0.3062 -0.3053 -0.2178 -0.0638 0.1084
0.2450 0.3526 0.4601 0.6314 0.8865 1.1963
1.5224 1.8814 2.2477 2.5538 2.8062 2.9966
3.1515 3.2827 3.4513 3.6727 3.8896 4.2294
4.5875 4.9492 5.4120 5.8220 6.2904 6.7204
7.1049 7.5641 7.9650 8.4351 8.8369 9.1212
9.4155 9.6251 9.8282 9.9768 10.0615 10.1271
10.1225 10.0934 10.0150 9.9285 9.8501 9.7372
9.6023 9.4192 9.2097 8.9418 8.6275 8.2986
7.9441 7.5988 7.1970 6.7779 6.3379 5.8732
5.4660 5.0487 4.6523 4.2305 3.7740 3.3804
2.9613 2.5878 2.2899 2.0056 1.7678 1.5519
1.3542 1.1218 0.8321 0.5560 0.3173 0.0923
-0.1145 -0.2812 -0.4033 -0.4671 -0.5190 -0.5746
-0.5965 -0.6274 -0.6438 -0.6229 -0.6192 -0.6356
-0.6402 -0.6037 -0.5536 -0.5099 -0.4570 -0.3750
-0.2648 -0.1208 0.0696 0.2701 0.5325 0.8550
1.1639 1.5128 1.8983 2.3256 2.8075 3.2914
3.8025 4.3164 4.7182 5.0562 5.3714 5.6284
5.8853 6.1177 6.3646 6.6798 6.9823 7.1882
7.2757 7.2721 7.2229 7.1992 7.1135 6.9040
6.6361 6.3209 5.9728 5.6121 5.3059 5.0517
4.8249 4.6399 4.4568 4.2946 4.0942 3.8391
3.6231 3.4163 3.2286 3.0191 2.7385 2.3759
1.9376 1.4666 0.9846 0.5591 0.1364 -0.2928
-0.7037 -1.1373 -1.5647 -1.9619 -2.3518 -2.7700
-3.1928 -3.6374 -4.0975 -4.5212 -4.9257 -5.3175
-5.6837 -6.0691 -6.4563 -6.7506 -6.9647 -7.1597
-7.3319 -7.4604 -7.4922 -7.4011 -7.2909 -7.1925
-7.0576 -6.9237 -6.7743 -6.5920 -6.4280 -6.3242
-6.2813 -6.2658 -6.2485 -6.2039 -6.1082 -5.9806
-5.8540 -5.6836 -5.5214 -5.4039 -5.3018 -5.2526
-5.2016 -5.1597 -5.1041 -5.0130 -4.9483 -4.8599
-4.7515 -4.6303 -4.4927 -4.3588 -4.2294 -4.1192
-4.0271 -3.9378 -3.8540 -3.7638 -3.6964 -3.6435
-3.5606 -3.4859 -3.4340 -3.3984 -3.3766 -3.3866
-3.4066 -3.4084 -3.4130 -3.4002 -3.3364 -3.2790
-3.2927 -3.3519 -3.4676 -3.6353 -3.8557 -4.0762
-4.2630 -4.4552 -4.6138 -4.7441 -4.8115 -4.7932
-4.7431 -4.6666 -4.5609 -4.4242 -4.2466 -4.0434
-3.8529 -3.6397 -3.3792 -3.0958 -2.7778 -2.4252
-2.0280 -1.5833 -1.1077 -0.6285 -0.1611 0.3127
0.7591 1.1883 1.6530 2.1149 2.5741 3.0433
3.4980 3.9353 4.3262 4.6724 4.9767 5.2446
5.5088 5.7512 5.9544 6.0938 6.1685 6.2323
6.2860 6.2879 6.2742 6.2250 6.1248 5.9872
5.8278 5.7549 5.6574 5.6155 5.7285 5.7494
5.7376 5.6401 5.3750 5.0379 4.5495 4.0430
3.5546 3.0098 2.4622 1.8344 1.1229 0.3630
-0.3859 -1.0929 -1.7936 -2.4559 -3.0773 -3.6367
-4.1643 -4.6845 -5.1865 -5.7022 -6.1787 -6.6798
-7.1855 -7.6556 -8.1777 -8.6769 -9.1717 -9.6628
-10.1092 -10.5411 -10.9492 -11.3246 -11.6708 -11.9979
-12.2475 -12.4507 -12.6393 -12.7878 -12.9363 -13.0930
-13.2671 -13.4802 -13.6871 -13.8875 -14.1043 -14.2784
-14.4068 -14.4332 -14.3294 -14.1845 -13.9722 -13.6378
-13.1932 -12.6675 -12.0725 -11.4411 -10.7878 -10.1218
-9.4931 -8.8936 -8.3169 -7.7456 -7.1680 -6.6168
-6.0810 -5.5990 -5.1726 -4.7517 -4.3317 -3.8843
-3.4051 -2.9222 -2.4456 -1.9609 -1.4853 -1.0316
-0.6225 -0.2180 0.2021 0.6102 0.9729 1.2271
1.4740 1.7200 1.9259 2.1337 2.2803 2.3915
2.4945 2.6175 2.7660 2.8626 2.9692 3.0794
3.1933 3.3655 3.5605 3.7610 3.9213 4.0370
4.1045 4.1773 4.2420 4.2466 4.2320 4.2202
4.2293 4.2202 4.1938 4.1409 4.1081 4.1100
4.1118 4.0790 4.0025 3.9004 3.6945 3.4367
3.2126 3.0367 2.8928 2.7497 2.6559 2.5939
2.5001 2.3625 2.1958 2.0109 1.8459 1.6619
1.4241 1.2228 1.0970 1.0096 0.9084 0.7618
0.6342 0.5121 0.3709 0.2415 0.1331 0.1258
0.1140 0.0356 -0.0801 -0.2295 -0.3661 -0.5219
-0.6458 -0.6896 -0.6367 -0.5083 -0.4035 -0.3880
-0.4226 -0.4663 -0.5675 -0.6886 -0.7816 -0.8307
-0.8727 -0.9410 -0.9993 -1.0631 -1.0621 -0.9446
-0.8763 -0.8699 -0.8763 -0.8635 -0.7141 -0.5118
-0.2758 0.0221 0.3784 0.8057 1.1610 1.4334
1.6940 1.9683 2.2161 2.4329 2.6990 3.0115
3.3587 3.6675 3.9554 4.2434 4.5130 4.7955
5.0552 5.2738 5.4542 5.6656 5.9827 6.3535
6.6706 7.0196 7.4970 7.9452 8.2395 8.4382
8.6076 8.7880 8.9958 9.2527 9.5743 9.9634
10.4180 10.8508 11.2417 11.5460 11.7656 12.0326
12.3469 12.6713 12.9373 13.1715 13.4156 13.4967
13.3874 13.2407 13.1022 12.9045 12.6194 12.3059
11.9297 11.5033 11.0623 10.6341 10.2068 9.6537
9.0952 8.5586 7.9809 7.3969 6.7163 5.9902
5.2868 4.6500 4.0477 3.3908 2.6719 1.8538
0.9600 0.1008 -0.5525 -1.0062 -1.4417 -1.9428
-2.4895 -3.0343 -3.5837 -4.1203 -4.5886 -5.0442
-5.5435 -6.0965 -6.7206 -7.3137 -7.8385 -8.3979
-9.0148 -9.6471 -10.2338 -10.7495 -11.2023 -11.5659
-11.8419 -12.0387 -12.1553 -12.1508 -12.0360 -11.8392
-11.5995 -11.3982 -11.2178 -11.0547 -10.9335 -10.8068
-10.6465 -10.4551 -10.2064 -9.9158 -9.5796 -9.1777
-8.7605 -8.3632 -7.9778 -7.5869 -7.2462 -6.9364
-6.5911 -6.2485 -5.9196 -5.6244 -5.3601 -5.0741
-4.7579 -4.4217 -4.0764 -3.7229 -3.3238 -2.8937
-2.4810 -2.0892 -1.7147 -1.3585 -0.9749 -0.5540
-0.1504 0.2487 0.6013 0.9166 1.2118 1.4523
1.6263 1.7630 1.8888 1.9234 1.9407 2.0063
2.1238 2.2933 2.4600 2.6423 2.8136 2.9776
3.1270 3.1634 3.1115 3.0651 3.0241 3.0268
3.0733 3.1762 3.3302 3.3913 3.3958 3.4250
3.4879 3.5161 3.4059 3.2045 2.9895 2.8610
2.8410 2.8064 2.7417 2.7062 2.6524 2.5996
2.5203 2.3973 2.3299 2.2634 2.1431 1.9518
1.7341 1.5482 1.3405 1.0790 0.8138 0.6079
0.5141 0.4904 0.4549 0.3948 0.2854 0.2253
0.2180 0.2034 0.1843 0.1151 0.0695 0.0231
-0.1081 -0.2767 -0.4398 -0.5764 -0.6885 -0.8133
-0.9290 -1.0256 -1.0866 -1.0802 -1.0474 -1.0720
-1.1504 -1.2214 -1.3016 -1.3900 -1.5084 -1.6506
-1.8155 -1.9940 -2.1444 -2.2655 -2.3330 -2.3439
-2.2947 -2.2455 -2.1853 -2.1161 -2.0678 -2.0067
-1.9767 -1.9958 -2.0705 -2.1416 -2.1270 -1.9985
-1.8363 -1.7534 -1.7170 -1.6741 -1.5603 -1.3598
-1.1411 -0.8851 -0.5617 -0.2273 0.0789 0.3476
0.6210 0.9053 1.2096 1.5667 1.9239 2.2455
2.4797 2.5927 2.5972 2.5526 2.4824 2.4396
2.4105 2.3594 2.3558 2.3740 2.4296 2.4879
2.5298 2.5289 2.4196 2.2620 2.0971 2.0069
2.0060 1.9869 1.9222 1.7819 1.5914 1.4502
1.3464 1.3054 1.3081 1.2999 1.2908 1.2535
1.1924 1.1086 0.9309 0.6239 0.3242 0.0490
-0.2544 -0.5687 -0.8985 -1.2484 -1.6429 -2.0319
-2.3700 -2.6205 -2.8774 -3.2145 -3.5307 -3.8168
-4.0810 -4.3234 -4.5347 -4.6641 -4.7051 -4.7151
-4.7388 -4.7506 -4.7215 -4.6641 -4.6030 -4.5374
-4.4381 -4.2923 -4.1511 -4.0308 -3.9470 -3.8586
-3.7830 -3.7465 -3.6691 -3.5898 -3.5215 -3.5096
-3.5698 -3.5871 -3.5770 -3.5552 -3.5196 -3.4896
-3.5005 -3.5670 -3.5852 -3.5068 -3.3182 -3.0832
-2.8718 -2.6640 -2.4773 -2.3142 -2.2094 -2.1073
-1.9069 -1.6263 -1.2718 -0.8928 -0.5402 -0.2140
0.0830 0.3645 0.6233 0.8538 1.0543 1.2319
1.3549 1.3996 1.3759 1.3030 1.2392 1.2265
1.2666 1.3295 1.3978 1.4406 1.4297 1.3933
1.3240 1.2794 1.2539 1.1992 1.1564 1.0963
0.9851 0.8503 0.7100 0.5833 0.4904 0.3929
0.2954 0.2153 0.0913 -0.0617 -0.2485 -0.4289
-0.5847 -0.7696 -0.9436 -1.1259 -1.2908 -1.4539
-1.6771 -1.8894 -2.1135 -2.3549 -2.5891 -2.8560
-3.1375 -3.4209 -3.6851 -3.8746 -3.9803 -4.0350
-4.0659 -4.0596 -3.9967 -3.9147 -3.7844 -3.5894
-3.3388 -3.0655 -2.8532 -2.6919 -2.6054 -2.5762
-2.5216 -2.4104 -2.2637 -2.1207 -1.9494 -1.7152
-1.4273 -1.1075 -0.7804 -0.5162 -0.2884 0.0515
0.5262 1.0291 1.5184 2.0477 2.5671 3.0044
3.3133 3.5383 3.8071 4.0823 4.2946 4.4130
4.4568 4.5060 4.5843 4.6226 4.6199 4.6481
4.7520 4.9770 5.2394 5.4608 5.5984 5.6950
5.8362 5.9829 6.0749 6.0385 5.8654 5.5711
5.3005 5.1493 5.0864 5.0208 4.8541 4.7193
4.6336 4.4796 4.2127 3.9057 3.6369 3.3280
2.9900 2.6921 2.4698 2.2730 1.9905 1.6744
1.3090 0.9200 0.6157 0.3524 0.1273 -0.0667
-0.2708 -0.4439 -0.5915 -0.7409 -1.0006 -1.3814
-1.7714 -2.1595 -2.4993 -2.9239 -3.4378 -3.8787
-4.2787 -4.6258 -4.9420 -5.2217 -5.5251 -5.9670
-6.4280 -6.8006 -7.0503 -7.1942 -7.3127 -7.4739
-7.6744 -7.8302 -7.9140 -7.9349 -7.9176 -7.9185
-7.9285 -7.8702 -7.7099 -7.4611 -7.2261 -7.0611
-6.9053 -6.6958 -6.3942 -6.0972 -5.8803 -5.7792
-5.7746 -5.7609 -5.7828 -5.8411 -5.8429 -5.7227
-5.4812 -5.2161 -4.9846 -4.7997 -4.7022 -4.6949
-4.6694 -4.6211 -4.5409 -4.4234 -4.3550 -4.2202
-4.0562 -3.9222 -3.8193 -3.7528 -3.6699 -3.5906
-3.4822 -3.3664 -3.2398 -3.0649 -2.8708 -2.7259
-2.6284 -2.5911 -2.5993 -2.5500 -2.4362 -2.2466
-2.0617 -1.9204 -1.7856 -1.6407 -1.4576 -1.2872
-1.0959 -0.8818 -0.6822 -0.4563 -0.2667 -0.1374
0.0048 0.1533 0.2991 0.4758 0.7373 1.1018
1.5145 1.9154 2.3026 2.6853 3.0607 3.4780
3.9153 4.3153 4.7262 5.1763 5.6191 6.0091
6.3307 6.5685 6.7671 7.0104 7.2728 7.5480
7.8322 8.0910 8.3397 8.5557 8.7160 8.7962
8.8509 8.9456 8.9921 9.0131 9.0340 9.0058
8.9940 9.0140 9.0505 9.1889 9.3211 9.3757
9.4823 9.6108 9.7612 9.9288 10.0964 10.2395
10.3005 10.3279 10.2996 10.2404 10.1648 10.0865
10.0263 9.8997 9.6983 9.4505 9.1890 8.9804
8.8355 8.6961 8.5704 8.4784 8.4210 8.3800
8.3199 8.2670 8.1869 8.0493 7.8434 7.5737
7.3286 7.1327 6.9797 6.8612 6.7182 6.5460
6.3310 6.0886 5.8782 5.6823 5.5064 5.3078
5.0117 4.6117 4.1398 3.6669 3.2333 2.8324
2.4989 2.2146 1.9422 1.7081 1.4712 1.2042
0.8890 0.6057 0.4134 0.2030 -0.0203 -0.1888
-0.2745 -0.3200 -0.4138 -0.5897 -0.7983 -1.0161
-1.2448 -1.3924 -1.4716 -1.5226 -1.5199 -1.5117
-1.4834 -1.4197 -1.3386 -1.1964 -1.0698 -1.0333
-1.0297 -1.0825 -1.1700 -1.2319 -1.3349 -1.5153
-1.7421 -1.9198 -2.0155 -2.0337 -1.9763 -1.9635
-2.0009 -2.0464 -2.1403 -2.2186 -2.1840 -2.0783
-1.9954 -1.9489 -1.9097 -1.8332 -1.7858 -1.8195
-1.8933 -1.9999 -2.0755 -2.1138 -2.1220 -2.1010
-2.0627 -1.9680 -1.9033 -1.8769 -1.8841 -1.9616
-2.0345 -2.1083 -2.2149 -2.3716 -2.5665 -2.7123
-2.8171 -2.9282 -3.0312 -3.1387 -3.1870 -3.1815
-3.1596 -3.0649 -2.9227 -2.8134 -2.7833 -2.7842
-2.8298 -2.8890 -2.9245 -2.9546 -2.9446 -2.9610
-2.9865 -3.0302 -3.0685 -3.0274 -2.9864 -2.9782
-2.9846 -2.9163 -2.8069 -2.7258 -2.5828 -2.3796
-2.1509 -1.9058 -1.7373 -1.6908 -1.7919 -1.9541
-2.0343 -2.0589 -2.0789 -2.1245 -2.1536 -2.1317
-2.0853 -2.0679 -2.1135 -2.1408 -2.1235 -2.0606
-2.0087 -2.0460 -2.1444 -2.2884 -2.4251 -2.5499
-2.7111 -2.8642 -3.0136 -3.1512 -3.2332 -3.3261
-3.4081 -3.4500 -3.4591 -3.4345 -3.4354 -3.4755
-3.5420 -3.5375 -3.5074 -3.5374 -3.5967 -3.6859
-3.7543 -3.8299 -3.8937 -3.9347 -3.9902 -4.0157
-4.0276 -4.0121 -3.9601 -3.8900 -3.8462 -3.8390
-3.7970 -3.6959 -3.5456 -3.3770 -3.2239 -3.0882
-2.9907 -2.8996 -2.7884 -2.6891 -2.6016 -2.5132
-2.4148 -2.3201 -2.2435 -2.1779 -2.1315 -2.1196
-2.1205 -2.0750 -1.9693 -1.8235 -1.6640 -1.5073
-1.2759 -0.9789 -0.7019 -0.4395 -0.2381 -0.1160
0.0179 0.1601 0.2931 0.3878 0.4525 0.5418
0.6111 0.6785 0.7368 0.7541 0.7623 0.7942
0.8580 0.9291 1.0175 1.1332 1.2617 1.3746
1.4548 1.5059 1.5141 1.4804 1.4202 1.3601
1.3382 1.2991 1.2499 1.2025 1.1269 1.0932
1.0722 1.0622 1.0176 0.8445 0.6650 0.5675
0.5511 0.5784 0.5566 0.4746 0.3525 0.1666
-0.0794 -0.3819 -0.6761 -0.9057 -1.1053 -1.2273
-1.2957 -1.3613 -1.4214 -1.5480 -1.7157 -1.8696
-2.0264 -2.2168 -2.4291 -2.5839 -2.7124 -2.8354
-2.9110 -2.9238 -2.8682 -2.8509 -2.8490 -2.7916
-2.6787 -2.5219 -2.3634 -2.1292 -1.9288 -1.7502
-1.5388 -1.3958 -1.2546 -1.1543 -1.0659 -0.9302
-0.7771 -0.6404 -0.5384 -0.4026 -0.2760 -0.1721
-0.0910 -0.0573 -0.0072 0.1195 0.2935 0.4010
0.4657 0.5158 0.5678 0.6461 0.6689 0.6817
0.7163 0.7956 0.9204 1.0607 1.2356 1.3869
1.5144 1.6602 1.8033 1.8999 1.9582 1.9746
1.9418 1.9081 1.8662 1.8334 1.8562 1.8890
1.8808 1.8042 1.6749 1.5819 1.4681 1.2703
1.0198 0.7383 0.4604 0.1789 -0.1163 -0.4780
-0.8762 -1.2862 -1.7417 -2.2119 -2.7112 -3.1986
-3.6377 -4.0222 -4.3703 -4.7156 -5.0162 -5.3032
-5.5793 -5.8453 -6.1578 -6.4986 -6.8293 -7.1500
-7.4315 -7.7040 -8.0019 -8.3071 -8.6488 -8.9841
-9.3084 -9.5644 -9.7138 -9.8141 -9.8441 -9.8505
-9.8450 -9.8031 -9.7284 -9.6391 -9.5753 -9.5015
-9.4168 -9.3475 -9.2801 -9.2108 -9.1179 -8.9585
-8.7954 -8.6350 -8.4455 -8.2195 -7.9125 -7.5827
-7.2346 -6.8410 -6.4410 -6.0647 -5.7285 -5.4005
-5.0944 -4.7664 -4.3710 -3.9619 -3.5582 -3.2020
-2.8412 -2.4348 -2.0130 -1.5647 -1.1182 -0.6490
-0.2017 0.2421 0.7013 1.1031 1.4702 1.7955
2.0743 2.3322 2.6219 2.9435 3.2524 3.5485
3.8073 4.0587 4.3120 4.5444 4.7612 4.9225
5.0510 5.1703 5.2423 5.2587 5.2469 5.2496
5.2587 5.2697 5.2906 5.3444 5.4474 5.5895
5.7599 5.9339 6.1070 6.2792 6.4605 6.6218
6.7111 6.7731 6.8159 6.8396 6.8514 6.8205
6.7603 6.7020 6.6228 6.5107 6.3813 6.2055
6.0178 5.8447 5.6889 5.5459 5.4147 5.2990
5.1805 5.1049 5.0411 4.9227 4.7541 4.5983
4.4608 4.3278 4.2330 4.1419 4.1446 4.2084
4.1847 4.1811 4.1665 4.0836 4.0116 3.9378
3.9014 3.8987 3.9014 3.9278 3.9242 3.8732
3.8085 3.7502 3.6983 3.6190 3.5024 3.4195
3.4003 3.4168 3.4268 3.4514 3.5161 3.5881
3.7184 3.8523 3.9115 3.9662 4.0099 4.0354
4.0291 3.9726 3.9170 3.8742 3.8596 3.8633
3.8870 3.9198 3.9034 3.8642 3.8177 3.7968
3.8004 3.7740 3.7686 3.7385 3.6857 3.6884
3.6702 3.6265 3.5763 3.4861 3.3914 3.3121
3.2648 3.2593 3.2557 3.2374 3.2374 3.2365
3.2001 3.1117 2.9769 2.8767 2.8120 2.7254
2.6498 2.5715 2.4867 2.4248 2.3237 2.1879
2.0339 1.8335 1.6221 1.4062 1.1985 1.0026
0.8386 0.7265 0.6017 0.4395 0.2099 -0.0315
-0.2265 -0.4506 -0.6720 -0.8697 -1.0455 -1.1822
-1.3262 -1.4701 -1.6195 -1.7662 -1.9220 -2.0915
-2.2381 -2.3994 -2.5670 -2.6809 -2.7985 -2.9087
-2.9488 -2.9788 -2.9679 -2.9424 -2.9433 -2.9032
-2.8695 -2.8431 -2.7838 -2.6927 -2.5852 -2.4768
-2.3228 -2.1506 -2.0267 -1.9565 -1.9438 -1.9237
-1.8927 -1.8954 -1.8982 -1.9155 -1.8790 -1.7706
-1.6749 -1.5856 -1.4954 -1.3952 -1.2695 -1.1428
-1.0198 -0.8795 -0.7456 -0.5952 -0.4230 -0.2690
-0.0968 0.0981 0.3177 0.5464 0.7523 0.9701
1.2197 1.4302 1.6024 1.7582 1.8858 2.0197
2.1464 2.2967 2.4671 2.6202 2.8006 3.0247
3.2671 3.5249 3.7973 4.0570 4.3358 4.6274
4.9262 5.1905 5.3891 5.5449 5.6551 5.7399
5.8374 5.9813 6.1034 6.2036 6.2692 6.2975
6.3467 6.3458 6.3248 6.2984 6.2210 6.1180
5.9786 5.8064 5.6151 5.4238 5.2142 4.9992
4.7824 4.4972 4.1984 3.8768 3.5196 3.1688
2.7880 2.4427 2.1557 1.8960 1.6856 1.4924
1.2501 0.9558 0.6478 0.3299 0.0520 -0.1567
-0.2833 -0.4036 -0.5357 -0.6459 -0.7862 -0.8919
-0.9994 -1.1005 -1.1916 -1.3237 -1.4057 -1.4650
-1.5224 -1.5661 -1.6535 -1.7109 -1.7237 -1.7401
-1.7091 -1.7264 -1.7875 -1.8421 -1.8895 -1.8858
-1.8858 -1.8631 -1.8503 -1.8548 -1.8603 -1.8421
-1.7883 -1.8029 -1.8603 -1.9651 -2.0589 -2.0771
-2.0270 -1.8730 -1.6890 -1.4776 -1.2689 -1.0958
-0.9373 -0.7833 -0.6065 -0.4243 -0.2202 0.0194
0.3055 0.5779 0.7738 0.9141 1.0116 1.0663
1.0918 1.1173 1.1410 1.1884 1.2522 1.3378
1.4490 1.5292 1.5902 1.6540 1.7406 1.8472
1.9255 1.9711 1.9702 1.9019 1.7479 1.5730
1.4655 1.4081 1.3361 1.1684 0.9252 0.6601
0.4359 0.2783 0.0815 -0.1217 -0.2838 -0.4588
-0.6073 -0.7813 -1.0291 -1.3106 -1.6623 -2.0395
-2.3730 -2.6964 -2.9652 -3.1975 -3.4462 -3.6449
-3.8289 -3.9911 -4.1496 -4.3664 -4.5778 -4.8019
-5.0078 -5.1919 -5.4033 -5.6010 -5.8069 -5.9754
-6.0929 -6.2059 -6.2824 -6.3681 -6.4610 -6.5503
-6.6332 -6.6706 -6.7024 -6.7380 -6.8118 -6.9229
-7.0450 -7.1789 -7.2965 -7.4759 -7.6992 -7.8595
-7.9670 -8.0235 -8.0399 -8.0198 -7.9797 -7.9397
-7.9342 -8.0098 -8.1055 -8.1547 -8.1674 -8.2066
-8.2913 -8.3934 -8.4917 -8.5710 -8.5874 -8.5364
-8.4298 -8.2776 -8.1419 -8.0207 -7.8895 -7.7273
-7.5523 -7.4275 -7.3637 -7.3318 -7.3072 -7.2744
-7.2289 -7.1860 -7.1715 -7.1633 -7.1651 -7.1933
-7.2070 -7.1860 -7.0749 -6.8890 -6.6913 -6.5027
-6.3532 -6.2138 -6.1154 -6.0626 -5.9888 -5.8849
-5.7819 -5.6863 -5.5942 -5.5897 -5.6243 -5.6380
-5.6279 -5.5541 -5.4803 -5.4175 -5.3327 -5.1888
-4.9920 -4.8316 -4.7487 -4.7241 -4.7031 -4.6876
-4.6530 -4.5901 -4.5564 -4.5181 -4.4462 -4.3833
-4.3523 -4.3569 -4.4115 -4.4352 -4.3614 -4.2994
-4.2894 -4.3131 -4.3678 -4.4333 -4.5017 -4.5727
-4.6438 -4.6766 -4.6693 -4.6392 -4.6146 -4.5682
-4.5025 -4.3978 -4.2319 -4.0716 -3.8884 -3.7190
-3.5641 -3.4001 -3.2616 -3.0885 -2.8643 -2.6566
-2.5199 -2.4425 -2.3869 -2.3103 -2.2001 -2.0807
-1.9422 -1.8192 -1.7181 -1.6097 -1.4848 -1.3154
-1.1222 -0.8826 -0.6147 -0.3742 -0.1209 0.1552
0.4768 0.8294 1.1374 1.4462 1.7897 2.1132
2.4275 2.7291 3.0671 3.4197 3.7468 4.0903
4.3637 4.5641 4.7099 4.8493 5.0343 5.2238
5.4169 5.5673 5.6566 5.6721 5.6274 5.5782
5.5154 5.4780 5.4461 5.4197 5.4443 5.4534
5.4662 5.4662 5.4471 5.4644 5.4863 5.5163
5.5628 5.6111 5.6421 5.6785 5.7295 5.7596
5.8043 5.8489 5.8690 5.8726 5.8617 5.8562
5.8462 5.8635 5.9063 5.9492 5.9984 6.0348
6.0813 6.1560 6.2572 6.3619 6.4285 6.4913
6.5369 6.5196 6.4932 6.4421 6.3893 6.3720
6.3793 6.4039 6.3957 6.4495 6.5652 6.6818
6.8385 7.0043 7.2011 7.4226 7.6166 7.7852
7.9310 8.0895 8.2353 8.3446 8.4066 8.4148
8.4358 8.4512 8.4312 8.3838 8.3228 8.1798
7.9547 7.7279 7.4281 7.0974 6.7858 6.5134
6.2993 6.1025 5.9512 5.8392 5.7289 5.5704
5.3709 5.1814 5.0110 4.8661 4.7058 4.5472
4.4233 4.2767 4.0553 3.7664 3.4740 3.2289
3.0294 2.8280 2.6212 2.4171 2.2030 1.9506
1.6363 1.3366 1.0514 0.7899 0.5521 0.3006
0.0847 -0.1467 -0.3517 -0.5294 -0.7344 -0.9375
-1.1899 -1.4350 -1.6126 -1.7211 -1.7794 -1.8122
-1.7803 -1.7493 -1.7065 -1.6864 -1.7311 -1.7301
-1.7201 -1.6882 -1.6263 -1.5935 -1.5889 -1.6199
-1.6408 -1.6490 -1.6499 -1.6426 -1.6545 -1.6982
-1.7893 -1.9269 -2.1100 -2.2968 -2.4362 -2.5655
-2.7304 -2.9118 -3.0812 -3.2115 -3.3062 -3.4037
-3.5149 -3.6388 -3.7891 -3.9394 -4.0788 -4.1809
-4.2519 -4.3075 -4.3303 -4.4223 -4.5553 -4.6528
-4.7913 -4.9270 -5.0154 -5.0418 -4.9835 -4.9234
-4.8842 -4.8587 -4.8459 -4.8077 -4.7147 -4.5890
-4.4860 -4.3329 -4.1389 -3.9603 -3.7626 -3.5712
-3.4282 -3.2888 -3.0765 -2.8241 -2.5280 -2.2018
-1.8747 -1.5002 -1.1176 -0.7495 -0.3586 0.0131
0.3375 0.6254 0.8751 1.0892 1.2623 1.4336
1.5611 1.6431 1.7452 1.8299 1.9010 1.9775
2.0623 2.1598 2.2737 2.3520 2.3994 2.4769
2.5716 2.7046 2.8504 2.9989 3.1174 3.1739
3.1675 3.1119 3.0773 3.0782 3.1156 3.1001
3.0327 2.9443 2.8159 2.7220 2.6455 2.6163
2.6327 2.5972 2.4988 2.4004 2.3239 2.2392
2.1043 1.8574 1.5267 1.1559 0.8315 0.6038
0.4024 0.2421 0.0771 -0.0796 -0.1497 -0.2180
-0.2927 -0.3875 -0.4904 -0.5715 -0.7018 -0.8412
-0.9697 -1.0571 -1.0717 -1.0453 -1.0061 -0.9879
-0.9359 -0.8293 -0.6972 -0.5624 -0.4576 -0.3328
-0.2052 -0.1004 0.0098 0.1119 0.2094 0.2686
0.3233 0.3871 0.4016 0.3944 0.3479 0.2923
0.2395 0.1803 0.1584 0.1183 0.0846 0.0946
0.0965 0.0919 0.1029 0.1794 0.3197 0.4464
0.4664 0.3917 0.3489 0.4045 0.5439 0.6687
0.7061 0.7270 0.7972 0.9575 1.1899 1.3757
1.4741 1.5562 1.7229 1.9325 2.0500 2.0518
2.0609 2.2031 2.3999 2.5484 2.5912 2.5994
2.7352 2.9365 3.1543 3.3766 3.5516 3.7238
3.8486 3.9178 3.9752 4.1037 4.3461 4.5757
4.7807 4.9246 5.0376 5.1652 5.2946 5.4485
5.5870 5.7374 5.8941 6.0891 6.2859 6.4481
6.6011 6.6904 6.7770 6.9118 7.0731 7.1597
7.1870 7.2389 7.3064 7.4303 7.5433 7.6025
7.6298 7.6335 7.6554 7.7009 7.7711 7.8248
7.8148 7.7875 7.7164 7.6253 7.5697 7.4714
7.3739 7.2345 6.9857 6.7261 6.4655 6.2186
5.9872 5.7421 5.4906 5.2610 5.0706 4.8529
4.5741 4.2178 3.7915 3.3951 3.0289 2.6954
2.3428 1.8900 1.4089 0.9178 0.4723 0.0359
-0.4588 -1.0110 -1.6223 -2.2191 -2.8149 -3.3816
-3.9247 -4.4786 -5.0317 -5.5829 -6.1122 -6.6352
-7.0944 -7.5153 -7.9271 -8.3153 -8.7089 -9.0751
-9.4304 -9.8423 -10.3270 -10.7953 -11.1934 -11.5451
-11.8549 -12.1583 -12.4453 -12.6958 -12.9600 -13.2662
-13.6133 -13.9477 -14.1909 -14.3413 -14.4187 -14.4542
-14.4469 -14.4287 -14.4588 -14.5143 -14.5745 -14.6146
-14.6209 -14.6364 -14.6637 -14.6428 -14.5981 -14.5134
-14.3831 -14.2419 -14.0633 -13.8738 -13.6615 -13.4638
-13.2670 -13.0200 -12.7431 -12.4451 -12.1736 -11.9449
-11.6898 -11.4037 -11.1231 -10.8206 -10.5536 -10.2903
-10.0480 -9.8794 -9.7163 -9.5405 -9.3218 -9.0986
-8.8617 -8.6330 -8.4225 -8.1911 -7.9870 -7.7537
-7.5177 -7.3137 -7.0904 -6.8736 -6.6576 -6.4253
-6.1839 -5.9460 -5.7128 -5.4486 -5.1616 -4.8609
-4.5948 -4.4208 -4.2887 -4.1611 -3.9953 -3.8012
-3.6309 -3.4942 -3.4013 -3.3211 -3.2655 -3.2409
-3.2181 -3.2217 -3.2500 -3.2181 -3.1370 -3.0441
-2.9420 -2.8591 -2.7498 -2.6814 -2.5183 -2.3215
-2.2860 -2.1812 -2.1019 -2.0637 -1.9889 -1.9261
-1.7958 -1.6618 -1.4997 -1.2828 -1.0824 -0.9083
-0.7963 -0.7325 -0.6751 -0.6040 -0.4664 -0.2833
-0.0974 0.0566 0.2288 0.4702 0.7490 1.0388
1.2984 1.5763 1.8806 2.1850 2.4865 2.7453
3.0332 3.3640 3.6819 3.9699 4.2186 4.4682
4.7051 4.9712 5.2728 5.5534 5.8049 6.0080
6.2194 6.4417 6.6540 6.8618 7.0404 7.1980
7.3246 7.4331 7.5315 7.6135 7.7128 7.8349
7.9488 8.0581 8.1984 8.3406 8.5064 8.7506
8.9984 9.2280 9.4640 9.7291 10.0325 10.2995
10.5136 10.6412 10.7204 10.8024 10.8389 10.8981
10.9419 10.9528 10.9765 10.9674 10.9255 10.7997
10.7041 10.6257 10.5027 10.4280 10.3059 10.1283
9.9005 9.6336 9.3794 9.1334 8.9266 8.7206
8.4437 8.1157 7.7695 7.4141 7.1126 6.8146
6.4693 6.1386 5.8133 5.4808 5.1118 4.7291
4.3674 3.9921 3.6185 3.2386 2.8732 2.5516
2.2564 1.9831 1.7426 1.5576 1.3244 1.0346
0.7622 0.4761 0.2065 -0.0341 -0.2682 -0.5343
-0.8058 -1.0536 -1.3123 -1.5611 -1.8207 -2.0567
-2.2134 -2.3674 -2.5241 -2.6808 -2.8603 -3.0243
-3.1965 -3.3696 -3.5144 -3.6192 -3.6875 -3.7413
-3.7622 -3.8078 -3.8561 -3.8470 -3.7987 -3.6857
-3.4962 -3.2903 -3.1080 -2.9258 -2.7591 -2.5677
-2.3645 -2.1778 -1.9773 -1.8069 -1.6365 -1.4479
-1.2575 -1.0580 -0.8429 -0.6152 -0.3956 -0.1988
-0.0257 0.1985 0.4527 0.6549 0.8545 1.0066
1.1060 1.2253 1.3082 1.4076 1.5688 1.7474
1.9524 2.1037 2.2021 2.3041 2.4171 2.5037
2.5474 2.6248 2.6941 2.7233 2.7169 2.6841
2.6331 2.5912 2.6030 2.6067 2.5857 2.5365
2.4053 2.2696 2.1520 2.0245 1.9452 1.8651
1.7384 1.5608 1.3175 1.0660 0.8073 0.5330
0.2825 0.0310 -0.2186 -0.4300 -0.6322 -0.8163
-0.9657 -1.1142 -1.2445 -1.3429 -1.3957 -1.3930
-1.3875 -1.4240 -1.4932 -1.5333 -1.5415 -1.5397
-1.5087 -1.4795 -1.4850 -1.5232 -1.5661 -1.5906
-1.6043 -1.5642 -1.5378 -1.5606 -1.5651 -1.5387
-1.4895 -1.4676 -1.4539 -1.4220 -1.3400 -1.2243
-1.1387 -1.0567 -0.9273 -0.7633 -0.6275 -0.5237
-0.4672 -0.4262 -0.3970 -0.3888 -0.3897 -0.4416
-0.5045 -0.5610 -0.6284 -0.7004 -0.7650 -0.8152
-0.8780 -0.9564 -0.9937 -0.9764 -0.9427 -0.8971
-0.8507 -0.8279 -0.8607 -0.9417 -1.0556 -1.1622
-1.2069 -1.2005 -1.2069 -1.2779 -1.3298 -1.3508
-1.3809 -1.3927 -1.4237 -1.4574 -1.4683 -1.4956
-1.5321 -1.5394 -1.5293 -1.5202 -1.5129 -1.5111
-1.5284 -1.5412 -1.5402 -1.6067 -1.7334 -1.8892
-2.0514 -2.1443 -2.2208 -2.3338 -2.4395 -2.5543
-2.6700 -2.8012 -2.9178 -3.0162 -3.1437 -3.2212
-3.3214 -3.4526 -3.5637 -3.6567 -3.6986 -3.7350
-3.7742 -3.8343 -3.9035 -3.9600 -4.0147 -4.0894
-4.1586 -4.2279 -4.3244 -4.4310 -4.5796 -4.6962
-4.7636 -4.8055 -4.7946 -4.7800 -4.7617 -4.7144
-4.6925 -4.6934 -4.6615 -4.6123 -4.5276 -4.4282
-4.3144 -4.1913 -4.1066 -3.9982 -3.8797 -3.7686
-3.6437 -3.5572 -3.5062 -3.4305 -3.3258 -3.1918
-3.0378 -2.8930 -2.7444 -2.6005 -2.4565 -2.3071
-2.1832 -2.0456 -1.8688 -1.6547 -1.3805 -1.0953
-0.8147 -0.5577 -0.3236 -0.0694 0.1675 0.4354
0.7397 1.0513 1.3811 1.7119 2.0563 2.3806
2.6403 2.8307 2.9784 3.0968 3.2234 3.3565
3.5004 3.6562 3.7710 3.8667 3.9487 3.9997
4.0335 4.1082 4.2011 4.2849 4.3806 4.4781
4.5811 4.6613 4.7378 4.8253 4.9045 4.9747
5.0239 5.0813 5.1342 5.1916 5.2736 5.3437
5.3884 5.3957 5.3884 5.3601 5.3082 5.2645
5.2162 5.1962 5.2244 5.2481 5.2517 5.2390
5.2098 5.1652 5.1315 5.1570 5.2017 5.2618
5.3475 5.3912 5.4459 5.5169 5.5570 5.6217
5.6755 5.7037 5.7220 5.6992 5.6564 5.5971
5.5343 5.4814 5.4623 5.4669 5.4705 5.4724
5.4751 5.5015 5.5061 5.5015 5.5216 5.5708
5.6264 5.6464 5.6637 5.6373 5.5617 5.4660
5.3840 5.3157 5.2292 5.1663 5.0861 4.9978
4.9167 4.7818 4.6242 4.4438 4.2516 4.0548
3.8461 3.6667 3.4835 3.3122 3.1455 2.9469
2.7437 2.5460 2.3574 2.1907 2.0221 1.8764
1.8008 1.6814 1.5056 1.2915 1.0045 0.6992
0.3813 0.0742 -0.1927 -0.4715 -0.7494 -1.0100
-1.2742 -1.5193 -1.7835 -2.0614 -2.3402 -2.6463
-2.9451 -3.2285 -3.4790 -3.7150 -3.9628 -4.2143
-4.4940 -4.7937 -5.0880 -5.3586 -5.6292 -5.9044
-6.1595 -6.4128 -6.6660 -6.9029 -7.1371 -7.3730
-7.5698 -7.7639 -7.9516 -8.1056 -8.2696 -8.4472
-8.6404 -8.8299 -9.0194 -9.1806 -9.3219 -9.4749
-9.5924 -9.7291 -9.8849 -9.9988 -10.0799 -10.1336
-10.1673 -10.2001 -10.2448 -10.2830 -10.3085 -10.3322
-10.3049 -10.2402 -10.2092 -10.1728 -10.1308 -10.0698
-9.9559 -9.8438 -9.7400 -9.6415 -9.5550 -9.4684
-9.3773 -9.3126 -9.2598 -9.1796 -9.1049 -8.9955
-8.8352 -8.6712 -8.4807 -8.2821 -8.1163 -7.9632
-7.8302 -7.6698 -7.4903 -7.2944 -7.0557 -6.8225
-6.5929 -6.3532 -6.1127 -5.8612 -5.6043 -5.4048
-5.2052 -4.9820 -4.7761 -4.5665 -4.3688 -4.1674
-3.9533 -3.7210 -3.4905 -3.2591 -3.0422 -2.8135
-2.5511 -2.3060 -2.0418 -1.8231 -1.6436 -1.4268
-1.2190 -1.0004 -0.7890 -0.5767 -0.3161 -0.0583
0.1868 0.4237 0.6716 0.9549 1.2720 1.6310
2.0027 2.3781 2.7243 3.0286 3.3229 3.5598
3.8104 4.0710 4.3252 4.6195 4.8955 5.1825
5.4686 5.7192 5.9297 6.0955 6.2394 6.4025
6.6185 6.8444 7.0585 7.2453 7.3729 7.4759
7.5688 7.6307 7.6636 7.6754 7.6526 7.6007
7.5351 7.4394 7.3520 7.2773 7.2308 7.2017
7.1470 7.1060 7.0450 6.9766 6.8837 6.7716
6.6550 6.5375 6.4336 6.2915 6.1403 5.9699
5.7913 5.6073 5.4078 5.2547 5.1253 4.9814
4.8547 4.7490 4.6634 4.6124 4.5750 4.5322
4.4630 4.3983 4.3354 4.2662 4.2079 4.1223
4.0412 3.9883 3.9501 3.9154 3.8635 3.8089
3.7424 3.6895 3.6339 3.5519 3.4490 3.3233
3.2331 3.1456 3.0481 2.9561 2.8623 2.7730
2.6445 2.4787 2.3211 2.1708 2.0505 1.9676
1.9111 1.8537 1.7471 1.6642 1.6232 1.5859
1.5294 1.4346 1.3627 1.2870 1.1486 0.9928
0.8224 0.6593 0.5290 0.3723 0.2229 0.0717
-0.0769 -0.1916 -0.3201 -0.4385 -0.5634 -0.6718
-0.7711 -0.8558 -0.9105 -1.0326 -1.1729 -1.2913
-1.4289 -1.5610 -1.7113 -1.8735 -2.0411 -2.2361
-2.4010 -2.5750 -2.7791 -2.9549 -3.1199 -3.2510
-3.3704 -3.4843 -3.5954 -3.7713 -3.9927 -4.2396
-4.5029 -4.7471 -5.0204 -5.3110 -5.5689 -5.8167
-6.0563 -6.2549 -6.3816 -6.4973 -6.6175 -6.7004
-6.7642 -6.8043 -6.8088 -6.7988 -6.7687 -6.7314
-6.7040 -6.6621 -6.6157 -6.5592 -6.5027 -6.4325
-6.3450 -6.2576 -6.1510 -6.0444 -5.9341 -5.8047
-5.6726 -5.5214 -5.3628 -5.2043 -5.0248 -4.8462
-4.6558 -4.4362 -4.1783 -3.9077 -3.6444 -3.3848
-3.0923 -2.7451 -2.3953 -2.0372 -1.7302 -1.4851
-1.2409 -1.0286 -0.8418 -0.6614 -0.4938 -0.3398
-0.1821 -0.0455 0.0365 0.1012 0.1359 0.1741
0.2151 0.2443 0.3017 0.3582 0.4265 0.4694
0.4976 0.5268 0.5259 0.5003 0.4803 0.4748
0.4703 0.4976 0.5077 0.4885 0.4539 0.4011
0.3546 0.3209 0.3072 0.2854 0.2316 0.1843
0.1770 0.1414 0.0768 -0.0034 -0.0745 -0.0918
-0.0799 -0.0480 -0.0398 -0.0407 -0.0353 -0.0416
-0.0161 0.0167 0.0477 0.0714 0.0449 0.0304
0.0513 0.1160 0.2108 0.2618 0.2983 0.3602
0.4504 0.5197 0.5607 0.5898 0.5643 0.5170
0.4732 0.4723 0.5006 0.5470 0.6108 0.6409
0.6974 0.7584 0.7967 0.8286 0.8423 0.8359
0.8395 0.8970 0.9307 0.9535 0.9844 0.9926
0.9881 0.9826 1.0209 1.1229 1.2505 1.3444
1.4109 1.4628 1.5293 1.6469 1.7553 1.8510
1.9184 1.9157 1.9184 1.9193 1.9211 1.9640
1.9931 1.9731 1.9048 1.8255 1.7918 1.8219
1.8784 1.9640 2.0487 2.0897 2.0761 2.0141
1.9941 1.9832 1.9713 1.9968 2.0041 2.0224
2.0224 1.9386 1.9076 1.9386 1.9623 2.0151
2.0634 2.1244 2.1846 2.2256 2.2812 2.3286
2.3686 2.4179 2.4789 2.5381 2.5700 2.5554
2.5281 2.5126 2.4917 2.4853 2.4990 2.5190
2.5436 2.5910 2.6721 2.7505 2.7942 2.8124
2.8325 2.8480 2.8516 2.8316 2.7642 2.6831
2.6184 2.5719 2.5811 2.6394 2.7123 2.7934
2.8417 2.8827 2.9528 3.0448 3.1505 3.2225
3.2763 3.3209 3.3519 3.4367 3.5433 3.6262
3.7054 3.7428 3.7610 3.7802 3.8230 3.8822
3.9068 3.9715 4.0417 4.1091 4.2102 4.3260
4.4335 4.5082 4.5902 4.6604 4.7287 4.7916
4.7888 4.7797 4.7597 4.6968 4.6312 4.5638
4.4818 4.3889 4.3306 4.2805 4.2404 4.2313
4.1876 4.1411 4.1037 4.0974 4.1356 4.1776
4.2423 4.2823 4.2778 4.2459 4.1749 4.1202
4.0737 4.0100 3.9690 3.9052 3.8195 3.7193
3.5827 3.4323 3.2538 3.0834 2.9312 2.7909
2.6506 2.5377 2.4548 2.2926 2.0921 1.9108
1.7432 1.6093 1.4726 1.3314 1.2157 1.0736
0.9241 0.7638 0.5807 0.4139 0.2490 0.1251
0.0058 -0.1464 -0.3104 -0.4999 -0.6940 -0.8825
-1.0830 -1.3089 -1.5340 -1.7390 -1.9257 -2.1025
-2.2865 -2.5043 -2.7266 -2.9352 -3.1329 -3.3215
-3.5138 -3.6914 -3.8709 -4.0048 -4.1206 -4.2463
-4.3337 -4.4239 -4.5105 -4.5907 -4.6526 -4.7118
-4.7665 -4.8102 -4.8403 -4.8293 -4.8066 -4.7801
-4.7874 -4.7856 -4.7865 -4.8293 -4.8685 -4.9450
-5.0225 -5.0443 -5.0352 -5.0142 -4.9887 -4.9896
-5.0224 -5.0798 -5.1509 -5.2010 -5.2174 -5.2083
-5.1636 -5.1181 -5.0689 -4.9841 -4.9212 -4.8620
-4.8274 -4.8401 -4.8748 -4.9030 -4.9139 -4.9340
-4.9030 -4.8374 -4.7882 -4.7864 -4.8346 -4.9066
-4.9795 -5.0269 -5.0187 -4.9904 -4.9731 -4.9448
-4.9658 -5.0050 -5.0788 -5.2008 -5.3020 -5.4122
-5.4960 -5.5698 -5.6418 -5.7366 -5.8568 -5.9844
-6.1748 -6.3770 -6.5702 -6.7579 -6.9237 -7.0585
-7.1679 -7.2754 -7.3792 -7.4649 -7.5241 -7.5733
-7.5815 -7.5204 -7.4284 -7.3163 -7.2097 -7.1405
-7.0967 -7.0703 -7.0448 -7.0211 -6.9619 -6.8516
-6.7459 -6.6229 -6.5036 -6.4298 -6.3979 -6.3869
-6.3860 -6.4170 -6.4461 -6.4370 -6.3824 -6.3004
-6.1947 -6.0808 -5.9705 -5.8548 -5.7582 -5.6762
-5.6033 -5.5441 -5.5095 -5.4703 -5.3837 -5.2580
-5.1058 -4.9701 -4.8580 -4.7669 -4.6794 -4.5619
-4.3970 -4.1910 -3.9387 -3.6772 -3.4767 -3.3100
-3.2107 -3.1587 -3.0895 -2.9865 -2.8243 -2.6430
-2.4617 -2.2357 -1.9879 -1.7364 -1.4868 -1.2554
-1.0476 -0.8918 -0.7552 -0.6504 -0.5583 -0.4335
-0.2659 -0.0344 0.2225 0.4767 0.7264 0.9377
1.0771 1.1847 1.2858 1.3970 1.5600 1.7450
1.9209 2.0931 2.2726 2.4748 2.6744 2.8666
3.0415 3.1664 3.2812 3.3632 3.4087 3.4625
3.5163 3.5983 3.7067 3.8452 3.9791 4.0967
4.2078 4.2825 4.3901 4.5240 4.6470 4.7718
4.9021 5.0333 5.1545 5.3222 5.5235 5.7313
5.9381 6.0684 6.1285 6.1413 6.1039 6.0092
5.8789 5.7668 5.6566 5.5919 5.6037 5.6666
5.8088 5.9801 6.1559 6.3381 6.4876 6.5787
6.5869 6.5331 6.4411 6.3464 6.2461 6.1796
6.1796 6.1888 6.2425 6.3300 6.4047 6.5031
6.6343 6.7564 6.8311 6.8630 6.8612 6.7892
6.6726 6.5277 6.3738 6.2289 6.0476 5.8125
5.5492 5.3160 5.1228 4.9807 4.9179 4.8787
4.8450 4.8614 4.9060 4.9489 4.9926 5.0436
5.1384 5.2450 5.3379 5.4245 5.4600 5.4536
5.4345 5.3771 5.3006 5.2386 5.1721 5.0911
4.9826 4.8806 4.8387 4.8077 4.7886 4.8077
4.7850 4.6938 4.5299 4.3048 4.1035 3.9440
3.7973 3.6497 3.5249 3.4019 3.2716 3.1641
3.0685 2.9983 2.9537 2.9409 2.9218 2.8653
2.7788 2.6503 2.5118 2.3478 2.1693 2.0454
1.9524 1.8723 1.7784 1.6417 1.4923 1.3147
1.1425 0.9457 0.7033 0.4664 0.2104 -0.0356
-0.2971 -0.5348 -0.7562 -0.9767 -1.1498 -1.3284
-1.4724 -1.6008 -1.7566 -1.8960 -2.0308 -2.1712
-2.3042 -2.4190 -2.5055 -2.5948 -2.7069 -2.8235
-2.9702 -3.1506 -3.3218 -3.4949 -3.6790 -3.8029
-3.9068 -4.0343 -4.1555 -4.2921 -4.4324 -4.5509
-4.6128 -4.6383 -4.6657 -4.6939 -4.7540 -4.7978
-4.8324 -4.8952 -4.9727 -5.0638 -5.1531 -5.2606
-5.3581 -5.4310 -5.5129 -5.5804 -5.6542 -5.7416
-5.8127 -5.8856 -5.9739 -6.0332 -6.0696 -6.0787
-6.0350 -6.0040 -5.9575 -5.8983 -5.8336 -5.7151
-5.5940 -5.4928 -5.4163 -5.3543 -5.3197 -5.2942
-5.2167 -5.1010 -4.8997 -4.6072 -4.3174 -4.0569
-3.8063 -3.5412 -3.2733 -2.9963 -2.7230 -2.5107
-2.3075 -2.0979 -1.8829 -1.6387 -1.3927 -1.1413
-0.8980 -0.7012 -0.5600 -0.4725 -0.4224 -0.3467
-0.2748 -0.2474 -0.2365 -0.2155 -0.1654 -0.0952
0.0068 0.1353 0.2628 0.3530 0.3895 0.4104
0.4551 0.5161 0.5790 0.6437 0.7503 0.9007
0.9918 1.0464 1.0911 1.1239 1.2114 1.2897
1.3471 1.3954 1.3972 1.3499 1.2715 1.1722
1.0565 0.9845 0.9417 0.8634 0.7768 0.7313
0.7768 0.9080 1.0484 1.1823 1.3217 1.4757
1.6515 1.8092 1.8839 1.9021 1.9486 1.9486
1.8748 1.7882 1.6999 1.6443 1.6388 1.6643
1.6689 1.6443 1.6106 1.5778 1.5423 1.4748
1.4229 1.3828 1.3336 1.2972 1.2489 1.2243
1.2134 1.1697 1.1205 1.0339 0.9228 0.8134
0.7296 0.6813 0.6285 0.6249 0.6531 0.6677
0.6859 0.6604 0.5975 0.4709 0.2860 0.1493
0.0354 -0.0876 -0.2425 -0.4083 -0.5322 -0.6406
-0.6834 -0.6889 -0.6998 -0.6925 -0.6707 -0.6260
-0.5741 -0.5312 -0.5075 -0.4911 -0.5303 -0.5904
-0.5895 -0.6032 -0.6396 -0.6715 -0.6651 -0.5840
-0.5093 -0.4938 -0.5294 -0.5858 -0.6077 -0.6259
-0.6696 -0.7207 -0.7881 -0.7935 -0.7370 -0.6933
-0.6569 -0.6058 -0.5776 -0.5849 -0.5575 -0.5247
-0.5029 -0.4737 -0.3926 -0.2933 -0.2240 -0.1776
-0.1065 -0.0072 0.0712 0.1687 0.2051 0.2115
0.1851 0.1022 0.0439 -0.0418 -0.1274 -0.1748
-0.1939 -0.2322 -0.3078 -0.3734 -0.4481 -0.5674
-0.7059 -0.8152 -0.9073 -0.9738 -1.0312 -1.1414
-1.2626 -1.3746 -1.4721 -1.5441 -1.6388 -1.7263
-1.7473 -1.6917 -1.5924 -1.4921 -1.4110 -1.3382
-1.2425 -1.1760 -1.1386 -1.1395 -1.1814 -1.1796
-1.1532 -1.1213 -1.0958 -1.0666 -1.0192 -0.9964
-1.0001 -1.0292 -1.0675 -1.0666 -1.0237 -0.9773
-0.9253 -0.8825 -0.8670 -0.8324 -0.8424 -0.8834
-0.8834 -0.8688 -0.7950 -0.7267 -0.6975 -0.6201
-0.5189 -0.4251 -0.3558 -0.2693 -0.1645 -0.0642
0.0506 0.1681 0.3339 0.5107 0.7120 0.9672
1.2332 1.4938 1.7261 1.9585 2.1844 2.3940
2.5580 2.6783 2.7994 2.9070 3.0008 3.0646
3.1275 3.1776 3.2086 3.2596 3.2651 3.2432
3.2304 3.2150 3.2268 3.2295 3.2250 3.2396
3.2186 3.1603 3.0656 2.9581 2.8906 2.8369
2.8032 2.7813 2.7267 2.7112 2.7403 2.7285
2.6684 2.5344 2.4206 2.3495 2.2648 2.1864
2.0734 1.9869 1.8675 1.6762 1.4986 1.3291
1.1605 0.9956 0.8635 0.7660 0.6886 0.6157
0.5319 0.4690 0.4454 0.3943 0.3096 0.2112
0.0518 -0.1304 -0.3017 -0.5022 -0.7400 -0.9541
-1.1308 -1.3003 -1.4761 -1.6738 -1.8324 -1.9508
-2.0610 -2.1093 -2.1321 -2.1813 -2.2551 -2.3580
-2.4510 -2.5630 -2.6660 -2.7188 -2.7698 -2.8464
-2.9894 -3.1862 -3.3994 -3.5898 -3.7666 -3.8959
-3.9561 -4.0034 -4.0244 -4.0599 -4.1237 -4.2039
-4.3141 -4.4498 -4.6138 -4.7614 -4.8908 -5.0247
-5.1468 -5.2971 -5.4630 -5.5796 -5.7017 -5.7882
-5.8092 -5.8183 -5.7982 -5.7417 -5.6543 -5.5686
-5.4483 -5.3016 -5.1395 -4.9463 -4.7513 -4.5691
-4.3559 -4.1081 -3.9049 -3.6826 -3.4821 -3.3126
-3.0903 -2.8926 -2.7067 -2.5373 -2.3960 -2.2530
-2.1437 -2.0079 -1.8311 -1.6863 -1.4986 -1.2261
-0.9419 -0.7022 -0.5200 -0.3679 -0.1783 0.0913
0.3884 0.6717 0.9196 1.1173 1.2740 1.4079
1.5592 1.7478 1.9838 2.2043 2.3291 2.3728
2.3819 2.4011 2.4284 2.4302 2.4220 2.4221
2.4157 2.3965 2.3656 2.3264 2.2936 2.2380
2.1387 2.0358 1.9747 1.9155 1.7871 1.6222
1.4727 1.3671 1.2996 1.1766 0.9944 0.8013
0.6546 0.5744 0.5024 0.4286 0.3366 0.2273
0.0660 -0.1062 -0.2319 -0.3385 -0.4351 -0.5580
-0.6528 -0.6820 -0.6655 -0.6473 -0.6409 -0.5926
-0.5216 -0.4487 -0.3731 -0.3002 -0.2054 -0.0851
0.0078 0.0807 0.1518 0.2310 0.3112 0.3550
0.3522 0.3267 0.3604 0.4352 0.5226 0.6220
0.7240 0.7823 0.8270 0.8816 0.9263 1.0229
1.1231 1.2343 1.3764 1.5468 1.6953 1.8074
1.9085 1.9632 2.0133 2.0780 2.1919 2.3203
2.4771 2.6638 2.7577 2.7887 2.8115 2.8033
2.7723 2.7413 2.7459 2.7759 2.8088 2.8898
2.9764 3.0001 2.9454 2.8507 2.7641 2.7159
2.7149 2.7405 2.7833 2.8152 2.8480 2.8279
2.7551 2.7113 2.7113 2.7341 2.7332 2.7514
2.8006 2.8617 2.9073 2.9382 2.9656 2.9701
2.9829 2.9947 3.0111 3.0112 2.9875 2.9683
3.0002 3.0586 3.0449 3.0021 2.9547 2.9082
2.8390 2.7260 2.6231 2.5885 2.6085 2.6149
2.5584 2.4582 2.4117 2.3972 2.3607 2.2714
2.1348 2.0209 1.9416 1.8988 1.8660 1.8487
1.8332 1.8132 1.8050 1.7512 1.6674 1.6064
1.6009 1.6228 1.5918 1.5098 1.3832 1.2374
1.0825 0.9158 0.7928 0.7108 0.6835 0.6780
0.6461 0.6343 0.6425 0.6935 0.7436 0.7491
0.7409 0.7072 0.6826 0.7136 0.7974 0.8803
0.9377 0.9578 0.9505 0.9204 0.8539 0.7619
0.6708 0.6253 0.5660 0.4303 0.2781 0.1834
0.1050 0.0413 0.0030 -0.0708 -0.1428 -0.1428
-0.0890 -0.0744 -0.1519 -0.2840 -0.3906 -0.4552
-0.4762 -0.4315 -0.3823 -0.3532 -0.3650 -0.4142
-0.4388 -0.4607 -0.5354 -0.5964 -0.6083 -0.6620
-0.8005 -0.9608 -1.1011 -1.1859 -1.1895 -1.1585
-1.1904 -1.3089 -1.4155 -1.5002 -1.5439 -1.5530
-1.5685 -1.5831 -1.6049 -1.6496 -1.7534 -1.8236
-1.8154 -1.7671 -1.6687 -1.5630 -1.5047 -1.4409
-1.3862 -1.3899 -1.3971 -1.4281 -1.4509 -1.4263
-1.3744 -1.3024 -1.2331 -1.1593 -1.0955 -1.0491
-0.9889 -0.8823 -0.7502 -0.6026 -0.4632 -0.3639
-0.2454 -0.0933 0.0079 0.0234 0.0179 -0.0058
-0.0094 0.0407 0.0699 0.1090 0.1355 0.0972
0.0644 0.0662 0.0990 0.1455 0.1738 0.2166
0.2776 0.3277 0.3423 0.3524 0.3569 0.3159
0.2695 0.2303 0.2248 0.2303 0.2667 0.3488
0.3661 0.3278 0.2977 0.2950 0.3050 0.2923
0.2276 0.1447 0.1055 0.0718 0.0080 -0.0749
-0.1441 -0.1851 -0.2161 -0.1933 -0.1614 -0.2079
-0.2953 -0.3846 -0.4447 -0.4957 -0.5768 -0.6260
-0.6661 -0.7891 -0.8884 -0.8966 -0.8848 -0.8474
-0.7663 -0.6943 -0.6560 -0.6196 -0.6041 -0.6059
-0.6169 -0.6023 -0.5613 -0.5521 -0.5959 -0.7061
-0.8355 -0.9220 -0.9776 -1.0059 -0.9475 -0.8765
-0.8765 -0.9083 -0.9922 -1.0951 -1.1944 -1.2846
-1.3147 -1.2955 -1.2491 -1.2117 -1.1707 -1.1169
-1.1069 -1.1798 -1.2928 -1.4021 -1.4896 -1.5561
-1.6299 -1.6371 -1.5898 -1.5961 -1.6271 -1.6672
-1.6936 -1.7373 -1.8230 -1.8858 -1.9523 -2.0216
-2.0681 -2.1109 -2.1756 -2.2603 -2.3769 -2.5245
-2.6384 -2.7085 -2.7422 -2.7504 -2.7550 -2.7905
-2.8643 -2.9317 -3.0001 -3.0811 -3.1613 -3.2834
-3.4337 -3.5913 -3.7471 -3.8911 -4.0505 -4.1990
-4.3521 -4.4888 -4.5881 -4.7120 -4.8468 -4.9479
-4.9762 -4.9825 -4.9889 -5.0117 -5.1055 -5.1957
-5.2805 -5.3497 -5.3870 -5.4663 -5.5456 -5.6103
-5.6458 -5.6367 -5.6239 -5.5993 -5.5647 -5.5036
-5.4280 -5.3724 -5.3551 -5.3515 -5.3250 -5.2968
-5.2421 -5.1701 -5.0981 -4.9924 -4.9132 -4.8439
-4.7519 -4.6872 -4.6134 -4.5150 -4.3993 -4.2599
-4.0968 -3.8945 -3.6722 -3.4553 -3.2294 -3.0107
-2.8358 -2.6818 -2.5779 -2.5014 -2.3529 -2.1187
-1.8199 -1.5556 -1.3734 -1.2203 -1.0591 -0.8604
-0.6582 -0.4677 -0.3010 -0.1598 -0.0158 0.1154
0.2402 0.3860 0.5746 0.7942 1.0293 1.2379
1.3928 1.5395 1.6907 1.8866 2.0925 2.2638
2.4552 2.6565 2.8333 2.9663 3.0456 3.0684
3.0912 3.1768 3.3107 3.4383 3.5549 3.7253
3.8829 4.0287 4.1891 4.3285 4.4633 4.5636
4.6711 4.8023 4.9153 5.0283 5.1312 5.1740
5.1750 5.1449 5.0693 4.9700 4.8442 4.7231
4.6320 4.5645 4.5053 4.4170 4.3586 4.3413
4.2976 4.2384 4.2120 4.1992 4.1673 4.1400
4.1127 4.0489 3.9615 3.8749 3.8321 3.8412
3.8303 3.8084 3.7893 3.7364 3.7027 3.6836
3.6845 3.6882 3.6499 3.6144 3.5524 3.4376
3.3019 3.1834 3.0932 3.0258 3.0021 2.9703
2.8974 2.8208 2.7571 2.7461 2.7571 2.7480
2.7598 2.7935 2.8027 2.8336 2.8628 2.7936
2.6842 2.5111 2.2779 2.0692 1.9271 1.8497
1.7850 1.7440 1.6757 1.5900 1.4944 1.3450
1.1564 0.9441 0.7209 0.4758 0.2480 0.0476
-0.1146 -0.2440 -0.3770 -0.4863 -0.5701 -0.6531
-0.6886 -0.7104 -0.7460 -0.7888 -0.8826 -0.9710
-1.0384 -1.1295 -1.2680 -1.4475 -1.6115 -1.7400
-1.8383 -1.9039 -1.9531 -1.9814 -2.0233 -2.0925
-2.1754 -2.2492 -2.2820 -2.2693 -2.1709 -2.0305
-1.9139 -1.8492 -1.8128 -1.7918 -1.7663 -1.6834
-1.6551 -1.6569 -1.5877 -1.4574 -1.2642 -1.0747
-0.9344 -0.8333 -0.7212 -0.5827 -0.4479 -0.3130
-0.1590 0.0241 0.2136 0.3448 0.4104 0.4451
0.4642 0.5243 0.6483 0.7822 0.9353 1.0984
1.1813 1.2369 1.3015 1.3662 1.4856 1.6159
1.7116 1.7690 1.8127 1.8501 1.8100 1.7098
1.6150 1.5786 1.5758 1.5194 1.3772 1.2187
1.0939 0.9490 0.8260 0.6994 0.5454 0.4160
0.2429 0.0881 -0.0869 -0.2308 -0.2545 -0.3502
-0.4422 -0.5615 -0.7738 -0.9169 -1.0353 -1.1774
-1.3150 -1.4662 -1.6111 -1.7733 -1.9701 -2.1277
-2.2543 -2.3555 -2.4211 -2.4821 -2.5313 -2.5695
-2.6433 -2.7554 -2.8602 -2.9877 -3.1053 -3.1854
-3.2401 -3.2355 -3.2674 -3.3585 -3.4460 -3.4979
-3.5243 -3.5772 -3.6209 -3.6500 -3.6610 -3.6072
-3.5489 -3.5471 -3.5206 -3.4523 -3.3712 -3.2992
-3.2664 -3.2291 -3.1279 -3.0159 -2.9840 -2.9594
-2.8874 -2.7544 -2.5821 -2.4427 -2.3371 -2.2478
-2.1557 -2.0400 -1.8906 -1.7803 -1.6992 -1.5899
-1.4696 -1.3557 -1.2856 -1.2409 -1.1990 -1.1571
-1.1043 -1.0131 -0.8929 -0.7963 -0.7115 -0.5995
-0.4710 -0.3389 -0.1767 -0.0464 0.0329 0.0848
0.1103 0.1276 0.1121 0.0693 0.0001 -0.0746
-0.1448 -0.2495 -0.4135 -0.5520 -0.6358 -0.7279
-0.8235 -1.0012 -1.2153 -1.3802 -1.5460 -1.6535
-1.6781 -1.7255 -1.8312 -1.9605 -2.0735 -2.1683
-2.2821 -2.3988 -2.5136 -2.5974 -2.6411 -2.7167
-2.8160 -2.8926 -2.9591 -3.0128 -3.0547 -3.1422
-3.2114 -3.2515 -3.3217 -3.3991 -3.4902 -3.5367
-3.5412 -3.5449 -3.5512 -3.5767 -3.6013 -3.6277
-3.6678 -3.7097 -3.7298 -3.7516 -3.7516 -3.7143
-3.6842 -3.6304 -3.5749 -3.5557 -3.5138 -3.4045
-3.2751 -3.1776 -3.1129 -3.0737 -3.0190 -2.9389
-2.8450 -2.7193 -2.5753 -2.4131 -2.2555 -2.1043
-1.9585 -1.8446 -1.7407 -1.6405 -1.5175 -1.3681
-1.1977 -0.9954 -0.7895 -0.5681 -0.3704 -0.2009
-0.0305 0.1335 0.3194 0.4843 0.6483 0.8314
1.0054 1.1840 1.3453 1.5394 1.7799 2.0086
2.1917 2.3193 2.4341 2.5708 2.6947 2.7977
2.9179 3.0209 3.1275 3.2423 3.3197 3.4045
3.5093 3.6204 3.7261 3.7908 3.8628 3.9293
3.9648 3.9995 4.0150 4.0387 4.0350 3.9895
3.9512 3.9075 3.8501 3.7544 3.6250 3.4884
3.3326 3.1476 2.9436 2.7249 2.5099 2.3441
2.2056 2.0653 1.9386 1.8184 1.7008 1.5605
1.4020 1.2462 1.0840 0.9164 0.7442 0.5702
0.3834 0.2395 0.1137 -0.0402 -0.1951 -0.3655
-0.4867 -0.5322 -0.5659 -0.5960 -0.6005 -0.6051
-0.6215 -0.6525 -0.7071 -0.7609 -0.8110 -0.8210
-0.7736 -0.7025 -0.6460 -0.6187 -0.6479 -0.6688
-0.6369 -0.5740 -0.4246 -0.2123 -0.0155 0.1348
0.3134 0.5120 0.6961 0.8592 0.9940 1.1671
1.3074 1.4268 1.5680 1.7120 1.8906 2.0819
2.3061 2.5129 2.7461 2.9429 3.1252 3.3201
3.2955 3.4896 3.7475 3.8404 4.0582 4.1593
4.2504 4.3324 4.3598 4.4254 4.4691 4.5220
4.5566 4.6486 4.7497 4.7962 4.8682 4.9256
4.9930 5.0887 5.1498 5.1689 5.1525 5.1079
5.0341 4.9457 4.8036 4.5995 4.4573 4.3498
4.2205 4.0929 3.9435 3.7795 3.5763 3.3640
3.1709 2.9705 2.7645 2.5760 2.4211 2.2762
2.1304 1.9664 1.8052 1.6266 1.4107 1.1920
0.9816 0.8012 0.6208 0.4877 0.4267 0.3711
0.2973 0.2044 0.1005 -0.0452 -0.2120 -0.3313
-0.4343 -0.5445 -0.6365 -0.7194 -0.7659 -0.7595
-0.7577 -0.8069 -0.8816 -0.9681 -1.0647 -1.1148
-1.1768 -1.2569 -1.3161 -1.3708 -1.3726 -1.3799
-1.3835 -1.3407 -1.3352 -1.3371 -1.3216 -1.3498
-1.3954 -1.4136 -1.4190 -1.4072 -1.3808 -1.3780
-1.4117 -1.4609 -1.5265 -1.5730 -1.6422 -1.7680
-1.9019 -1.9957 -2.0449 -2.1306 -2.2299 -2.3611
-2.5287 -2.6872 -2.8284 -2.9560 -3.0817 -3.1829
-3.2849 -3.3660 -3.4307 -3.4862 -3.5500 -3.6320
-3.7176 -3.8142 -3.8926 -3.9910 -4.0702 -4.1413
-4.2379 -4.2898 -4.3308 -4.4137 -4.5130 -4.5968
-4.6770 -4.7389 -4.7927 -4.8565 -4.9239 -4.9822
-5.0195 -5.0614 -5.0824 -5.0869 -5.0924 -5.0924
-5.0851 -5.0614 -5.0049 -4.9493 -4.8673 -4.7735
-4.7097 -4.6322 -4.5329 -4.3844 -4.2040 -4.0236
-3.8186 -3.6072 -3.3968 -3.1489 -2.9375 -2.8018
-2.6451 -2.4847 -2.3180 -2.1285 -1.9417 -1.7175
-1.4679 -1.2428 -1.0488 -0.8383 -0.5914 -0.3162
-0.0155 0.2487 0.5047 0.8200 1.1379 1.4614
1.7557 2.0044 2.2641 2.5019 2.7096 2.9256
3.1661 3.3939 3.5898 3.7684 3.9351 4.1155
4.3105 4.4954 4.6567 4.8116 4.9747 5.1460
5.3109 5.4631 5.5979 5.7237 5.8567 5.9496
6.0189 6.1027 6.1993 6.2840 6.3560 6.4626
6.5665 6.6394 6.7086 6.7742 6.8007 6.8161
6.8316 6.8107 6.7925 6.7724 6.7533 6.7424
6.7059 6.6604 6.6303 6.6003 6.5192 6.4026
6.3042 6.2058 6.1183 6.0472 5.9543 5.8477
5.7311 5.5908 5.4131 5.2400 5.1380 5.0742
5.0068 4.9494 4.8875 4.7991 4.6898 4.5740
4.4547 4.3098 4.1495 4.0520 4.0055 3.9500
3.8725 3.7623 3.6602 3.5828 3.4671 3.3332
3.2229 3.1245 3.0435 2.9833 2.9259 2.8102
2.6535 2.5114 2.3838 2.2745 2.1807 2.0786
1.9274 1.7388 1.5702 1.4463 1.3616 1.2960
1.2240 1.1457 1.0573 0.9589 0.8806 0.8040
0.7239 0.6565 0.5699 0.4560 0.3339 0.2109
0.1144 0.0387 -0.0706 -0.1681 -0.2382 -0.3421
-0.4514 -0.5571 -0.6564 -0.7502 -0.8514 -0.9133
-0.9634 -1.0846 -1.2222 -1.3433 -1.5000 -1.6841
-1.8809 -2.0968 -2.3091 -2.4931 -2.6781 -2.8585
-3.0134 -3.1819 -3.3550 -3.5427 -3.7441 -3.9481
-4.1194 -4.2379 -4.3536 -4.4538 -4.5066 -4.5586
-4.6624 -4.7553 -4.8264 -4.8756 -4.9102 -4.9822
-5.0296 -5.0514 -5.0341 -5.0004 -4.9977 -4.9812
-4.9530 -4.8947 -4.8181 -4.7425 -4.6824 -4.6013
-4.4929 -4.4300 -4.3744 -4.3070 -4.2113 -4.1202
-4.0956 -4.0701 -4.0701 -4.0792 -4.0345 -3.9662
-3.8924 -3.8650 -3.8432 -3.8240 -3.8505 -3.8714
-3.9097 -3.9662 -4.0235 -4.0791 -4.0600 -3.9926
-3.9579 -3.9588 -3.9971 -4.0800 -4.2185 -4.3287
-4.3843 -4.4089 -4.3351 -4.2494 -4.1893 -4.1319
-4.0991 -4.0690 -4.0481 -4.0307 -4.0125 -3.9870
-3.9615 -3.9205 -3.8549 -3.7829 -3.7565 -3.7856
-3.8157 -3.8576 -3.8968 -3.9195 -3.8931 -3.8211
-3.7464 -3.6471 -3.5724 -3.5050 -3.4311 -3.3719
-3.2981 -3.2207 -3.1469 -3.1040 -3.0858 -3.0840
-3.0831 -3.0530 -3.0093 -2.9427 -2.8708 -2.8015
-2.7204 -2.6676 -2.6457 -2.6247 -2.5655 -2.4598
-2.3477 -2.2156 -2.0744 -1.9304 -1.8029 -1.7355
-1.6908 -1.6434 -1.5432 -1.3792 -1.2279 -1.1286
-1.0539 -0.9482 -0.8197 -0.6813 -0.5646 -0.4826
-0.3787 -0.2867 -0.2211 -0.1737 -0.1500 -0.0817
-0.0043 0.0932 0.2153 0.2919 0.3383 0.3566
0.3903 0.4714 0.5588 0.6208 0.6454 0.6445
0.6336 0.6072 0.5926 0.5917 0.5616 0.5416
0.5407 0.5443 0.5452 0.5735 0.6282 0.6610
0.6792 0.6528 0.5826 0.4952 0.4113 0.3549
0.3403 0.3558 0.3330 0.2820 0.2027 0.1462
0.1116 0.0479 -0.0059 -0.0678 -0.1016 -0.0870
-0.0441 0.0051 0.0187 0.0014 -0.0259 -0.0259
-0.0259 -0.0250 -0.0259 -0.0687 -0.0933 -0.0605
0.0069 0.0953 0.1600 0.2056 0.2229 0.2156
0.2703 0.3359 0.4024 0.4698 0.5199 0.5983
0.6694 0.7413 0.8288 0.9044 0.9837 1.0502
1.1086 1.1550 1.1568 1.1250 1.1159 1.1632
1.2097 1.2316 1.2398 1.2361 1.2116 1.2006
1.1833 1.1268 1.1031 1.0804 1.0458 1.0148
0.9884 0.9911 1.0057 0.9929 0.9683 0.9137
0.8044 0.6732 0.5247 0.4062 0.3233 0.2723
0.2012 0.0883 -0.0092 -0.0794 -0.1322 -0.2179
-0.2980 -0.3272 -0.3153 -0.3144 -0.3809 -0.5139
-0.6497 -0.7326 -0.8173 -0.8902 -0.9585 -1.0433
-1.1171 -1.2118 -1.3284 -1.4168 -1.4806 -1.5179
-1.5188 -1.5270 -1.5243 -1.4724 -1.4241 -1.3676
-1.2910 -1.2664 -1.2491 -1.2108 -1.2236 -1.2464
-1.2700 -1.3557 -1.4468 -1.5343 -1.6135 -1.6591
-1.7219 -1.7985 -1.8786 -1.9706 -2.0198 -1.9961
-1.9706 -1.9943 -2.0417 -2.0882 -2.1082 -2.1009
-2.0663 -2.0398 -2.0736 -2.1109 -2.1155 -2.0845
-2.0480 -2.0435 -2.0225 -1.9742 -1.9368 -1.9341
-1.9250 -1.8712 -1.7838 -1.6562 -1.5077 -1.3810
-1.2881 -1.1861 -1.1195 -1.0913 -1.0302 -0.9072
-0.7387 -0.5637 -0.4407 -0.3387 -0.2321 -0.1747
-0.1209 -0.0763 0.0559 0.2827 0.5096 0.7483
0.9023 1.0253 1.1811 1.3059 1.4080 1.5027
1.6339 1.8162 1.9847 2.1624 2.3419 2.4913
2.5979 2.6726 2.7638 2.8439 2.9132 2.9879
3.0972 3.2230 3.3624 3.4817 3.5309 3.5337
3.4681 3.4380 3.4444 3.4909 3.5756 3.6184
3.6531 3.6531 3.6813 3.6959 3.6649 3.6340
3.5793 3.5565 3.5438 3.5192 3.5064 3.5110
3.5247 3.5165 3.5046 3.5156 3.5174 3.5010
3.4536 3.3789 3.3097 3.2450 3.1931 3.1093
2.9826 2.8824 2.7567 2.5781 2.4250 2.2865
2.1973 2.1162 1.9996 1.8857 1.7481 1.6497
1.5905 1.5285 1.4721 1.3901 1.2835 1.1769
1.0311 0.8580 0.7013 0.5783 0.4863 0.3833
0.2904 0.1820 0.0572 -0.0494 -0.1415 -0.2517
-0.4038 -0.5578 -0.7209 -0.8257 -0.9077 -1.0115
-1.0853 -1.1919 -1.3040 -1.4024 -1.4780 -1.5573
-1.6629 -1.7003 -1.7103 -1.7376 -1.7376 -1.7240
-1.7012 -1.6574 -1.6192 -1.5937 -1.6018 -1.6073
-1.6000 -1.6009 -1.5891 -1.5718 -1.5435 -1.5089
-1.4579 -1.3631 -1.2692 -1.2237 -1.1900 -1.1517
-1.0934 -1.0287 -0.9877 -0.9540 -0.9540 -0.9448
-0.9658 -1.0259 -1.0678 -1.0952 -1.1043 -1.1799
-1.2856 -1.3311 -1.3539 -1.3357 -1.3065 -1.2974
-1.2783 -1.2382 -1.1607 -1.0869 -1.0104 -0.8810
-0.7634 -0.6578 -0.5320 -0.4382 -0.3425 -0.2113
-0.0965 0.0356 0.1495 0.2579 0.4238 0.5659
0.6853 0.7873 0.8748 1.0169 1.1673 1.3049
1.4515 1.5791 1.7222 1.8880 2.0520 2.2069
2.3153 2.4146 2.5367 2.6643 2.8028 2.9504
3.1053 3.2729 3.4360 3.5827 3.7194 3.8141
3.8816 3.9727 4.0283 4.0920 4.2059 4.2888
4.3772 4.4720 4.5658 4.6743 4.7936 4.9030
4.9913 5.0670 5.1116 5.1772 5.2629 5.3285
5.3777 5.4232 5.4725 5.5371 5.6237 5.7258
5.8488 5.9654 6.0720 6.1412 6.1822 6.2296
6.2551 6.2597 6.2725 6.2816 6.2816 6.3144
6.3317 6.3162 6.3335 6.3645 6.3581 6.3126
6.2898 6.2798 6.2789 6.2661 6.2297 6.2170
6.1687 6.0739 5.9455 5.8042 5.6703 5.5437
5.4006 5.2622 5.1556 5.0162 4.8877 4.7492
4.5706 4.3702 4.1643 3.9930 3.7935 3.6176
3.4746 3.3079 3.1457 2.9653 2.7722 2.5890
2.4442 2.2993 2.1062 1.9066 1.7317 1.5732
1.4320 1.3062 1.1331 0.9409 0.7523 0.5473
0.3386 0.1182 -0.0677 -0.2299 -0.4094 -0.5934
-0.7811 -0.9651 -1.1537 -1.3614 -1.5683 -1.7705
-1.9400 -2.0630 -2.1577 -2.2379 -2.3481 -2.4502
-2.5440 -2.6406 -2.7390 -2.8583 -2.9513 -3.0178
-3.1025 -3.1599 -3.1717 -3.1963 -3.2145 -3.2437
-3.2965 -3.3667 -3.4168 -3.4286 -3.4523 -3.5042
-3.5635 -3.5872 -3.6090 -3.6573 -3.7238 -3.7630
-3.7611 -3.7648 -3.7766 -3.8131 -3.8358 -3.8459
-3.8459 -3.8185 -3.7921 -3.7912 -3.8240 -3.8641
-3.9233 -3.9870 -4.0399 -4.0781 -4.0927 -4.0863
-4.1000 -4.1018 -4.0663 -4.0654 -4.0480 -4.0344
-4.0435 -4.0234 -4.0152 -4.0061 -3.9706 -3.9359
-3.9241 -3.9542 -4.0152 -4.0689 -4.0990 -4.0826
-4.0744 -4.1054 -4.1281 -4.1436 -4.1555 -4.1546
-4.1427 -4.1217 -4.0826 -4.0580 -4.0479 -4.0862
-4.1381 -4.1272 -4.1700 -4.2165 -4.2301 -4.2748
-4.3012 -4.3376 -4.3850 -4.4515 -4.5244 -4.5836
-4.6401 -4.6783 -4.7057 -4.7121 -4.7020 -4.6792
-4.6856 -4.7230 -4.7312 -4.6974 -4.6692 -4.6619
-4.6710 -4.6856 -4.6810 -4.6737 -4.6382 -4.5935
-4.5689 -4.5380 -4.5352 -4.5434 -4.5261 -4.5124
-4.4878 -4.4322 -4.3521 -4.2427 -4.1407 -4.0377
-3.9329 -3.8628 -3.8044 -3.7206 -3.6213 -3.5475
-3.4755 -3.3926 -3.3015 -3.1958 -3.1256 -3.0600
-2.9890 -2.9425 -2.8550 -2.7539 -2.6455 -2.5243
-2.4259 -2.3466 -2.2363 -2.1088 -1.9794 -1.8500
-1.7635 -1.6596 -1.5876 -1.5430 -1.4865 -1.4209
-1.3024 -1.2250 -1.1502 -1.0509 -0.9862 -0.9115
-0.8505 -0.8195 -0.7922 -0.7420 -0.6983 -0.6764
-0.6500 -0.6591 -0.6828 -0.7065 -0.7748 -0.8395
-0.9042 -0.9971 -1.0627 -1.1246 -1.2148 -1.2950
-1.3889 -1.4708 -1.5401 -1.6467 -1.7806 -1.9328
-2.0767 -2.2234 -2.3646 -2.4803 -2.5687 -2.6653
-2.7910 -2.9049 -3.0270 -3.1372 -3.2174 -3.2757
-3.3276 -3.3659 -3.3768 -3.4114 -3.4515 -3.4870
-3.5390 -3.6009 -3.6264 -3.6656 -3.7367 -3.7658
-3.7649 -3.7275 -3.6902 -3.6555 -3.6182 -3.5808
-3.5107 -3.4387 -3.3640 -3.2874 -3.2036 -3.1170
-3.0177 -2.9166 -2.8564 -2.7599 -2.6405 -2.5129
-2.3872 -2.2833 -2.1494 -2.0346 -1.9335 -1.8305
-1.7385 -1.6036 -1.4259 -1.2601 -1.1198 -0.9831
-0.8537 -0.7080 -0.5312 -0.3444 -0.1440 0.0255
0.1749 0.3089 0.4064 0.5184 0.6150 0.7626
0.9403 1.0742 1.2300 1.3485 1.4496 1.5681
1.6519 1.7047 1.7266 1.7476 1.7986 1.8688
1.9335 1.9963 2.0319 2.0155 1.9717 1.9153
1.8469 1.7658 1.7285 1.7084 1.6802 1.6520
1.6137 1.5700 1.5208 1.4798 1.4042 1.3468
1.3012 1.2347 1.2047 1.1919 1.1837 1.1336
1.0252 0.9131 0.8220 0.7418 0.6681 0.6107
0.5369 0.4558 0.4148 0.3875 0.3583 0.3346
0.3000 0.2645 0.2526 0.2827 0.3201 0.3729
0.4385 0.4959 0.5497 0.5825 0.6198 0.6754
0.7684 0.8977 1.0226 1.1529 1.2804 1.4153
1.5365 1.6658 1.7797 1.8499 2.0303 2.2216
2.3720 2.5615 2.7355 2.9323 3.1173 3.2977
3.4735 3.5811 3.6995 3.8079 3.9063 4.0539
4.2125 4.3737 4.4767 4.5305 4.5952 4.6489
4.7200 4.7646 4.7738 4.7975 4.8011 4.7938
4.7884 4.7674 4.7574 4.7301 4.6772 4.6371
4.5661 4.4905 4.4449 4.3884 4.3000 4.1980
4.1078 4.0413 3.9903 3.9238 3.8354 3.7206
3.5894 3.4546 3.2878 3.1157 2.9644 2.8141
2.6282 2.4214 2.2164 2.0069 1.8219 1.6698
1.5185 1.3354 1.1350 0.9436 0.7860 0.6657
0.5318 0.3642 0.1710 -0.0358 -0.2217 -0.3711
-0.5460 -0.6918 -0.8230 -0.9915 -1.1464 -1.3140
-1.4753 -1.6183 -1.7295 -1.8215 -1.8999 -1.9372
-1.9773 -2.0329 -2.0866 -2.1231 -2.1613 -2.1959
-2.2205 -2.2497 -2.2688 -2.2779 -2.2506 -2.2032
-2.1740 -2.1658 -2.1804 -2.1922 -2.2168 -2.2433
-2.2214 -2.1922 -2.1704 -2.1430 -2.1148 -2.1102
-2.1175 -2.1211 -2.1339 -2.1193 -2.1038 -2.1102
-2.1065 -2.1184 -2.1257 -2.0901 -2.0409 -1.9844
-1.9252 -1.8988 -1.8796 -1.8523 -1.8231 -1.7931
-1.7694 -1.7320 -1.7174 -1.7338 -1.7101 -1.6773
-1.6299 -1.5534 -1.4923 -1.3867 -1.3065 -1.2664
-1.1990 -1.1242 -0.9976 -0.8564 -0.7461 -0.6586
-0.5739 -0.5037 -0.4418 -0.3634 -0.2924 -0.2040
-0.1174 -0.0281 0.0439 0.1076 0.2243 0.3445
0.4575 0.5432 0.6070 0.6644 0.7172 0.7856
0.8311 0.8840 0.9705 1.0580 1.1272 1.1828
1.2575 1.3395 1.4188 1.5072 1.5728 1.6102
1.6648 1.7396 1.7906 1.8216 1.8507 1.8954
1.9510 1.9710 1.9683 1.9510 1.9419 1.9373
1.9437 1.9692 1.9820 2.0038 2.0421 2.0622
2.0531 2.0403 2.0312 2.0303 2.0348 2.0558
2.0731 2.0759 2.0996 2.1141 2.1242 2.1187
2.1041 2.1078 2.1369 2.1861 2.1880 2.1907
2.2044 2.2390 2.3137 2.3547 2.4012 2.4185
2.4121 2.4258 2.4185 2.4131 2.3976 2.4012
2.4195 2.4304 2.4477 2.4505 2.4450 2.4386
2.4559 2.4933 2.5425 2.6099 2.6682 2.7348
2.8067 2.8477 2.8687 2.8997 2.9644 3.0373
3.0938 3.1393 3.1712 3.2095 3.2532 3.2897
3.3188 3.3671 3.4172 3.4491 3.4838 3.5120
3.5321 3.5175 3.5084 3.5166 3.5057 3.5321
3.5795 3.6205 3.6196 3.5895 3.5822 3.5567
3.5585 3.5904 3.6132 3.6624 3.7144 3.7517
3.7700 3.7581 3.7435 3.7262 3.7053 3.6834
3.6780 3.7099 3.7299 3.7354 3.7162 3.6907
3.6907 3.6707 3.6443 3.6015 3.5277 3.4402
3.3582 3.2817 3.1997 3.1259 3.0239 2.9091
2.8344 2.7733 2.7041 2.6458 2.5866 2.5128
2.4617 2.4217 2.3825 2.3460 2.3041 2.2896
2.2568 2.1930 2.1392 2.0591 1.9680 1.8723
1.7858 1.7429 1.7156 1.6810 1.6254 1.5389
1.4086 1.2710 1.1343 0.9831 0.8628 0.7517
0.6852 0.6305 0.5112 0.3809 0.2196 0.0347
-0.1248 -0.2642 -0.3862 -0.5129 -0.6596 -0.7962
-0.9475 -1.1078 -1.2800 -1.4622 -1.6171 -1.7984
-1.9970 -2.1865 -2.3660 -2.5227 -2.6567 -2.7906
-2.9273 -3.0594 -3.1796 -3.2643 -3.3463 -3.4566
-3.5732 -3.6743 -3.7800 -3.8593 -3.9331 -3.9987
-4.0579 -4.1381 -4.2000 -4.2802 -4.3421 -4.4132
-4.4888 -4.5389 -4.5990 -4.6400 -4.6911 -4.7229
-4.7156 -4.7293 -4.7657 -4.7885 -4.8168 -4.8587
-4.8851 -4.9069 -4.9015 -4.8678 -4.8131 -4.7520
-4.7129 -4.6883 -4.6855 -4.6755 -4.6245 -4.5507
-4.4823 -4.4404 -4.3994 -4.3484 -4.3055 -4.2664
-4.2336 -4.1871 -4.1379 -4.1178 -4.0768 -4.0212
-3.9484 -3.8727 -3.8354 -3.7616 -3.6540 -3.5420
-3.4354 -3.3406 -3.2431 -3.1748 -3.1028 -3.0062
-2.8705 -2.7183 -2.5989 -2.4850 -2.3930 -2.3201
-2.2117 -2.0914 -1.9693 -1.8199 -1.6923 -1.6103
-1.5384 -1.4709 -1.3734 -1.2787 -1.2258 -1.1566
-1.0955 -1.0427 -0.9725 -0.9197 -0.8932 -0.8850
-0.8714 -0.8568 -0.8741 -0.8978 -0.9187 -0.9187
-0.9032 -0.8896 -0.8622 -0.8558 -0.8595 -0.8904
-0.8895 -0.8485 -0.8522 -0.8303 -0.8121 -0.8184
-0.8130 -0.7811 -0.7455 -0.7146 -0.7173 -0.7692
-0.7920 -0.8084 -0.7974 -0.7637 -0.7355 -0.7018
-0.6844 -0.6708 -0.6853 -0.7081 -0.7218 -0.7318
-0.7227 -0.6981 -0.6944 -0.6962 -0.6926 -0.6917
-0.6935 -0.7181 -0.7281 -0.7427 -0.7418 -0.7008
-0.6743 -0.6525 -0.6260 -0.6087 -0.6260 -0.6360
-0.6124 -0.5522 -0.4903 -0.4392 -0.3645 -0.3135
-0.2615 -0.2215 -0.1987 -0.1340 -0.0766 -0.0155
0.0492 0.0911 0.1266 0.1694 0.2123 0.2278
0.2369 0.2378 0.2415 0.2487 0.2542 0.2670
0.2652 0.2761 0.2761 0.2524 0.2442 0.2132
0.1877 0.1941 0.2105 0.2196 0.2151 0.2051
0.1859 0.1778 0.1759 0.1504 0.1049 0.0794
0.0666 0.0375 0.0265 0.0265 0.0211 -0.0126
-0.0682 -0.1083 -0.1721 -0.2413 -0.3306 -0.4117
-0.4572 -0.5173 -0.5602 -0.5957 -0.6230 -0.6576
-0.6831 -0.6877 -0.6995 -0.6931 -0.6740 -0.6558
-0.6722 -0.6776 -0.6776 -0.7250 -0.7669 -0.7815
-0.8052 -0.8380 -0.8680 -0.8935 -0.9190 -0.9609
-0.9837 -1.0156 -1.0502 -1.0967 -1.1787 -1.2425
-1.2962 -1.3545 -1.4201 -1.4684 -1.5358 -1.6233
-1.6889 -1.7645 -1.8447 -1.9303 -1.9859 -2.0323
-2.0997 -2.1562 -2.2118 -2.2419 -2.2683 -2.2993
-2.3375 -2.3785 -2.4195 -2.4760 -2.5179 -2.5480
-2.5461 -2.5315 -2.5379 -2.5334 -2.5142 -2.4987
-2.5206 -2.5479 -2.5260 -2.4869 -2.4468 -2.4112
-2.3894 -2.3620 -2.3502 -2.3420 -2.3256 -2.2937
-2.2499 -2.2089 -2.1461 -2.0950 -2.0467 -1.9984
-1.9647 -1.9447 -1.9082 -1.8353 -1.7661 -1.6850
-1.6267 -1.5274 -1.4053 -1.3388 -1.2722 -1.2385
-1.2075 -1.1602 -1.1073 -1.0317 -0.9533 -0.8987
-0.8631 -0.8112 -0.7802 -0.7647 -0.7128 -0.6854
-0.6508 -0.6089 -0.6107 -0.6034 -0.5852 -0.5642
-0.5587 -0.5487 -0.5460 -0.5533 -0.5341 -0.5259
-0.5022 -0.4876 -0.4749 -0.4612 -0.4749 -0.4676
-0.4694 -0.4858 -0.5104 -0.5077 -0.4812 -0.4812
-0.4420 -0.3956 -0.3810 -0.3573 -0.3491 -0.3482
-0.3482 -0.3290 -0.2698 -0.1914 -0.1195 -0.0730
0.0035 0.0956 0.1621 0.2277 0.2906 0.3580
0.4336 0.4901 0.5439 0.6313 0.7361 0.8364
0.9539 1.0805 1.1944 1.3284 1.4723 1.6163
1.7666 1.9024 2.0591 2.2085 2.3315 2.4354
2.5183 2.6240 2.7470 2.8746 3.0012 3.1197
3.2491 3.3365 3.4031 3.4677 3.4814 3.5334
3.6026 3.6345 3.6737 3.6855 3.6937 3.7056
3.7010 3.6865 3.6719 3.6856 3.6938 3.6601
3.5899 3.5034 3.4122 3.3448 3.2811 3.1736
3.0597 2.9385 2.8155 2.6889 2.5476 2.4019
2.2397 2.0830 1.9226 1.7368 1.5573 1.3660
1.1655 0.9888 0.7993 0.5997 0.3966 0.1970
0.0075 -0.1792 -0.3460 -0.5109 -0.6822 -0.8261
-0.9464 -1.0721 -1.1741 -1.2725 -1.3518 -1.4101
-1.4912 -1.5395 -1.5613 -1.5714 -1.5786 -1.5832
-1.5640 -1.5139 -1.4447 -1.3927 -1.3344 -1.2643
-1.1950 -1.1294 -1.0274 -0.8943 -0.7768 -0.6502
-0.5016 -0.3467 -0.1955 -0.0442 0.0760 0.1954
0.3138 0.4396 0.6136 0.7639 0.9033 1.0601
1.2159 1.3762 1.5020 1.6241 1.7735 1.9029
2.0486 2.1808 2.2947 2.4313 2.5416 2.6427
2.7293 2.8040 2.8532 2.8751 2.9179 2.9689
3.0008 3.0327 3.0564 3.0573 3.0664 3.0555
3.0519 3.0245 2.9753 2.9480 2.8833 2.8223
2.7749 2.7148 2.6610 2.5818 2.4652 2.3695
2.2757 2.1517 2.0524 1.9231 1.7873 1.7062
1.6005 1.5003 1.4238 1.3263 1.2188 1.0922
0.9619 0.8498 0.7432 0.6184 0.5118 0.4371
0.3442 0.2312 0.1119 -0.0130 -0.1141 -0.1724
-0.2307 -0.2744 -0.3291 -0.4202 -0.5122 -0.5997
-0.6443 -0.6862 -0.7600 -0.8347 -0.8775 -0.8894
-0.8903 -0.8994 -0.9240 -0.9559 -0.9941 -0.9759
-0.9322 -0.8802 -0.8010 -0.7354 -0.6707 -0.5941
-0.5067 -0.4155 -0.3363 -0.2615 -0.1732 -0.0711
0.0464 0.1858 0.3034 0.4036 0.4984 0.5722
0.6450 0.7380 0.8364 0.9293 1.0441 1.1799
1.2920 1.3922 1.4651 1.5070 1.5580 1.5890
1.6464 1.7047 1.7703 1.8323 1.8369 1.8423
1.8159 1.7940 1.7713 1.7248 1.6856 1.6173
1.5526 1.4843 1.4169 1.3568 1.2684 1.1663
1.0561 0.9131 0.7892 0.7154 0.6543 0.5842
0.4967 0.4038 0.2935 0.1915 0.0694 -0.0581
-0.1565 -0.2640 -0.3515 -0.4599 -0.5364 -0.5911
-0.6941 -0.7697 -0.8398 -0.9209 -0.9819 -1.0357
-1.0895 -1.1304 -1.1523 -1.1459 -1.1432 -1.1505
-1.1395 -1.1350 -1.1049 -1.0739 -1.0502 -0.9965
-0.9564 -0.8899 -0.8142 -0.7623 -0.6703 -0.5700
-0.4880 -0.3969 -0.3167 -0.2402 -0.1327 -0.0215
0.0924 0.2081 0.2974 0.3894 0.4905 0.5826
0.6883 0.8022 0.9051 1.0053 1.0937 1.1794
1.2623 1.3170 1.3844 1.4618 1.5311 1.6195
1.6741 1.7079 1.7443 1.7625 1.7853 1.7972
1.8272 1.8482 1.8491 1.8300 1.7863 1.7635
1.7152 1.6569 1.6168 1.5867 1.5421 1.4665
1.3799 1.3107 1.2815 1.2570 1.2223 1.1440
1.0675 1.0183 0.9244 0.8506 0.8078 0.7377
0.6520 0.5664 0.4835 0.3887 0.2958 0.2229
0.1573 0.0826 -0.0112 -0.1206 -0.2244 -0.3164
-0.3948 -0.4312 -0.4777 -0.5560 -0.6353 -0.7301
-0.8093 -0.8594 -0.9077 -0.9851 -1.0826 -1.1500
-1.1728 -1.2102 -1.2685 -1.3022 -1.3377 -1.3696
-1.3760 -1.3869 -1.3933 -1.3860 -1.3878 -1.3851
-1.3586 -1.3623 -1.3932 -1.4087 -1.4087 -1.3832
-1.3522 -1.3304 -1.2966 -1.2693 -1.2684 -1.2666
-1.2620 -1.2693 -1.2529 -1.2192 -1.2073 -1.1891
-1.1627 -1.1444 -1.1417 -1.1882 -1.2301 -1.2647
-1.3193 -1.3430 -1.3594 -1.3749 -1.3995 -1.4405
-1.4879 -1.5380 -1.5890 -1.6509 -1.6992 -1.7484
-1.7830 -1.8659 -1.9917 -2.0682 -2.1347 -2.2103
-2.2960 -2.3552 -2.4016 -2.4645 -2.5246 -2.5793
-2.6312 -2.6859 -2.7387 -2.8207 -2.8872 -2.9319
-3.0011 -3.0649 -3.0968 -3.1095 -3.1368 -3.1450
-3.1387 -3.1295 -3.0794 -3.0311 -2.9929 -2.9245
-2.8535 -2.7951 -2.7049 -2.5929 -2.4999 -2.3997
-2.3168 -2.2521 -2.1509 -2.0680 -1.9833 -1.8867
-1.8129 -1.7345 -1.6498 -1.5687 -1.4867 -1.3929
-1.3437 -1.2753 -1.1742 -1.1077 -1.0129 -0.9418
-0.8899 -0.8170 -0.7769 -0.7286 -0.6676 -0.6484
-0.6338 -0.6266 -0.6083 -0.6120 -0.6329 -0.6147
-0.6256 -0.6393 -0.6557 -0.6730 -0.7040 -0.7440
-0.7914 -0.8771 -0.9363 -1.0000 -1.0784 -1.1631
-1.2688 -1.3663 -1.4665 -1.5941 -1.7171 -1.8227
-1.9193 -2.0004 -2.1006 -2.2127 -2.3366 -2.4468
-2.5643 -2.7083 -2.8368 -2.9561 -3.0545 -3.1538
-3.2713 -3.3807 -3.4426 -3.5009 -3.5847 -3.6458
-3.7132 -3.7597 -3.7815 -3.8207 -3.8325 -3.8389
-3.8325 -3.8025 -3.7569 -3.6940 -3.6394 -3.5601
-3.4735 -3.3988 -3.2977 -3.1756 -3.0644 -2.9378
-2.7874 -2.6334 -2.4594 -2.2936 -2.1469 -1.9947
-1.8244 -1.6594 -1.5073 -1.3251 -1.1301 -0.9305
-0.7283 -0.5479 -0.3720 -0.1852 0.0006 0.1929
0.3706 0.5400 0.7323 0.8972 1.0694 1.2607
1.4193 1.5787 1.7254 1.8594 1.9678 2.0571
2.1600 2.2557 2.3332 2.4051 2.4944 2.5928
2.6721 2.7213 2.7350 2.7332 2.7441 2.7532
2.7578 2.7405 2.7122 2.6630 2.5829 2.5382
2.4872 2.4417 2.3906 2.2804 2.1711 2.0581
1.9670 1.9087 1.8331 1.7365 1.6527 1.5488
1.4313 1.3329 1.2236 1.1224 1.0049 0.8473
0.7125 0.6177 0.5075 0.4045 0.3025 0.1667
0.0355 -0.0884 -0.2095 -0.3344 -0.4628 -0.5539
-0.6086 -0.6869 -0.7726 -0.8518 -0.9548 -1.0486
-1.1479 -1.2782 -1.3575 -1.3885 -1.4194 -1.4049
-1.3866 -1.3720 -1.3629 -1.3748 -1.3802 -1.3848
-1.3638 -1.3383 -1.3091 -1.2718 -1.2308 -1.1880
-1.1533 -1.1114 -1.0795 -1.0458 -0.9702 -0.8891
-0.7898 -0.6841 -0.6276 -0.5693 -0.5109 -0.4189
-0.2868 -0.1629 -0.0854 -0.1037 -0.1146 -0.0617
0.0458 0.1578 0.1989 0.2481 0.3273 0.4130
0.5050 0.5606 0.5998 0.6444 0.7310 0.8394
0.8822 0.9087 0.9615 1.0262 1.0636 1.0736
1.0690 1.0554 1.0563 1.0508 1.0545 1.0691
1.0964 1.1420 1.1921 1.2322 1.2550 1.2632
1.2522 1.2732 1.2777 1.2714 1.2860 1.2732
1.2978 1.3361 1.3416 1.3343 1.3206 1.3306
1.3552 1.3507 1.3425 1.3197 1.2833 1.2979
1.3115 1.3179 1.3343 1.3434 1.3608 1.3653
1.3708 1.3936 1.4136 1.4419 1.5075 1.5685
1.6214 1.6988 1.7590 1.7963 1.8145 1.8273
1.8792 1.9257 1.9540 1.9804 1.9913 2.0196
2.0360 2.0661 2.1235 2.1626 2.2009 2.2182
2.2401 2.2811 2.3258 2.3640 2.3649 2.3868
2.4223 2.4333 2.4442 2.4278 2.4087 2.4233
2.4342 2.4552 2.4816 2.4771 2.4953 2.5281
2.5591 2.6183 2.6566 2.6593 2.6575 2.6557
2.6520 2.6338 2.6192 2.6202 2.6229 2.6056
2.5591 2.5108 2.4708 2.4307 2.3879 2.3460
2.2931 2.2312 2.1947 2.1610 2.1118 2.0562
1.9970 1.9497 1.9123 1.8768 1.8267 1.7747
1.7228 1.6618 1.5816 1.4750 1.3821 1.3101
1.2363 1.1607 1.0778 0.9849 0.8783 0.7680
0.6769 0.5740 0.4491 0.3416 0.2414 0.1175
-0.0055 -0.1011 -0.2096 -0.3171 -0.4054 -0.4829
-0.5421 -0.5968 -0.6760 -0.7671 -0.8683 -0.9803
-1.0669 -1.1589 -1.2245 -1.2691 -1.3274 -1.3702
-1.4449 -1.5151 -1.5679 -1.6344 -1.6773 -1.7301
-1.7975 -1.8558 -1.9387 -2.0180 -2.1055 -2.2038
-2.2685 -2.3150 -2.3605 -2.4252 -2.4762 -2.5409
-2.6038 -2.6503 -2.7104 -2.7541 -2.8261 -2.8844
-2.9409 -3.0292 -3.0730 -3.1012 -3.1768 -3.2552
-3.3153 -3.3891 -3.4492 -3.5157 -3.5932 -3.6169
-3.6451 -3.6843 -3.7098 -3.7526 -3.7836 -3.8136
-3.8464 -3.8783 -3.9239 -3.9676 -3.9922 -4.0195
-4.0569 -4.0733 -4.0888 -4.0787 -4.0459 -4.0131
-3.9967 -3.9976 -3.9493 -3.8919 -3.8336 -3.7789
-3.7452 -3.6942 -3.6559 -3.5757 -3.4755 -3.3899
-3.2924 -3.2149 -3.1256 -3.0208 -2.9079 -2.8240
-2.7393 -2.6454 -2.5498 -2.4177 -2.3193 -2.2045
-2.0833 -2.0095 -1.9174 -1.8209 -1.7507 -1.6924
-1.6377 -1.5730 -1.4691 -1.3543 -1.2587 -1.1512
-1.0619 -0.9990 -0.9434 -0.8933 -0.8022 -0.7229
-0.6373 -0.5534 -0.4860 -0.3985 -0.3256 -0.2227
-0.1407 -0.0796 -0.0140 0.0470 0.1072 0.1464
0.1819 0.1846 0.2019 0.2266 0.2348 0.2548
0.2594 0.2603 0.2612 0.2767 0.3004 0.3159
0.3113 0.2922 0.2840 0.2840 0.2959 0.3041
0.3278 0.3396 0.3214 0.3296 0.3223 0.3105
0.3278 0.3105 0.2622 0.2376 0.2294 0.2221
0.2303 0.2385 0.2495 0.2431 0.2067 0.1985
0.1821 0.1392 0.1156 0.1074 0.1055 0.0901
0.1001 0.1311 0.1311 0.1347 0.1639 0.1830
0.2140 0.2505 0.2851 0.3416 0.3890 0.4409
0.5092 0.5758 0.6231 0.6486 0.6924 0.7553
0.8254 0.9047 0.9849 1.0532 1.0979 1.1389
1.2036 1.3020 1.3876 1.4487 1.4933 1.5042
1.5607 1.6364 1.6828 1.7585 1.8295 1.8906
1.9443 1.9808 2.0391 2.1020 2.1457 2.1813
2.2186 2.2651 2.3334 2.3835 2.4118 2.4373
2.4564 2.4774 2.4692 2.4592 2.4546 2.4601
2.4765 2.4802 2.4747 2.4711 2.4574 2.4210
2.3891 2.3508 2.3280 2.3262 2.3226 2.3235
2.3135 2.2962 2.2689 2.2042 2.1358 2.1085
2.1085 2.1140 2.1113 2.1085 2.0766 2.0065
1.9199 1.8698 1.8689 1.8389 1.8134 1.8088
1.7696 1.7068 1.6230 1.5464 1.4890 1.4590
1.4517 1.4426 1.4453 1.4143 1.3542 1.3214
1.2750 1.2285 1.2066 1.1793 1.1574 1.1392
1.1119 1.1001 1.0919 1.0855 1.0955 1.1110
1.1438 1.1794 1.2094 1.2532 1.2942 1.3516
1.4345 1.4955 1.5138 1.5129 1.5110 1.5192
1.5448 1.5976 1.6496 1.7006 1.7625 1.8172
1.8810 1.9120 1.9348 1.9739 2.0131 2.0696
2.0970 2.1124 2.1289 2.1471 2.1480 2.1434
2.1635 2.1389 2.1088 2.0733 2.0250 2.0159
2.0332 2.0478 2.0451 2.0032 1.9194 1.8301
1.7253 1.6533 1.6096 1.5495 1.5048 1.4402
1.3618 1.2935 1.2106 1.1231 1.0511 0.9618
0.8461 0.7332 0.6375 0.5546 0.4762 0.3687
0.2421 0.1291 0.0271 -0.0831 -0.2262 -0.3556
-0.4640 -0.5915 -0.6945 -0.7838 -0.8621 -0.9286
-1.0042 -1.0953 -1.2083 -1.3003 -1.3687 -1.3978
-1.4333 -1.5208 -1.5992 -1.6866 -1.7613 -1.7814
-1.7905 -1.8460 -1.9308 -2.0037 -2.0647 -2.1075
-2.1658 -2.2351 -2.2879 -2.3243 -2.3389 -2.3954
-2.4810 -2.5612 -2.6304 -2.6951 -2.7489 -2.7917
-2.8664 -2.9192 -2.9803 -3.0750 -3.1516 -3.2308
-3.3146 -3.3912 -3.4331 -3.4486 -3.4959 -3.5652
-3.6335 -3.7210 -3.8075 -3.8840 -3.9679 -4.0289
-4.1054 -4.1993 -4.2394 -4.2785 -4.3013 -4.2712
-4.2730 -4.2794 -4.2785 -4.3268 -4.3824 -4.4270
-4.4306 -4.3924 -4.3277 -4.2484 -4.1901 -4.1372
-4.1090 -4.0671 -3.9860 -3.9113 -3.8211 -3.7172
-3.6060 -3.4739 -3.3728 -3.2753 -3.1532 -3.0111
-2.8352 -2.6393 -2.4361 -2.2421 -2.0617 -1.9314
-1.8011 -1.6516 -1.4940 -1.3255 -1.1514 -0.9637
-0.8198 -0.6457 -0.4499 -0.2585 -0.0426 0.1378
0.3055 0.4886 0.7036 0.8986 1.0727 1.2485
1.4070 1.5592 1.6913 1.8134 1.9337 2.0530
2.1888 2.3391 2.4849 2.6353 2.7920 2.9204
3.0143 3.1009 3.2138 3.3660 3.5136 3.6220
3.7186 3.7806 3.8289 3.8762 3.9100 3.9473
3.9856 4.0530 4.1150 4.1587 4.1924 4.2034
4.2271 4.2489 4.2362 4.2052 4.1824 4.1369
4.0631 4.0221 4.0066 3.9948 3.9656 3.9028
3.8144 3.7087 3.6222 3.5310 3.4536 3.3999
3.3188 3.2368 3.1584 3.0855 3.0063 2.9425
2.8796 2.7895 2.7047 2.6072 2.5134 2.4296
2.3357 2.2255 2.1216 2.0214 1.9239 1.8556
1.7654 1.6798 1.6251 1.5613 1.4912 1.4338
1.3828 1.3290 1.2725 1.2325 1.1915 1.1240
1.0430 0.9300 0.8453 0.8188 0.7833 0.7414
0.6813 0.6230 0.6020 0.5947 0.5747 0.5465
0.5474 0.5528 0.5091 0.4444 0.3961 0.3743
0.3725 0.3707 0.3670 0.3852 0.3953 0.4135
0.4745 0.5310 0.5775 0.6149 0.6313 0.6112
0.5611 0.4700 0.3880 0.3862 0.4008 0.4372
0.4728 0.4837 0.5101 0.5202 0.5184 0.5229
0.5284 0.5029 0.4610 0.4236 0.3826 0.3635
0.3599 0.3735 0.3972 0.4154 0.4209 0.3836
0.3371 0.2906 0.2542 0.2524 0.2588 0.2597
0.2506 0.2105 0.1504 0.0975 0.0210 -0.0191
-0.0182 -0.0373 -0.0555 -0.1284 -0.2168 -0.2751
-0.3088 -0.3115 -0.3452 -0.3707 -0.3844 -0.4354
-0.5238 -0.5775 -0.5693 -0.5666 -0.5383 -0.5465
-0.6231 -0.7260 -0.8399 -0.9055 -0.9164 -0.9009
-0.9073 -0.9073 -0.9465 -1.0412 -1.1360 -1.2325
-1.2854 -1.3218 -1.3492 -1.3783 -1.4111 -1.4011
-1.3910 -1.3992 -1.4193 -1.4357 -1.4575 -1.5031
-1.5568 -1.5924 -1.5842 -1.5714 -1.5605 -1.5322
-1.5131 -1.4912 -1.4948 -1.5413 -1.5832 -1.6233
-1.6315 -1.6342 -1.6515 -1.6606 -1.6861 -1.7098
-1.7536 -1.7909 -1.8064 -1.8437 -1.8702 -1.8702
-1.8838 -1.9458 -2.0159 -2.0824 -2.1735 -2.2901
-2.4368 -2.5489 -2.6172 -2.6691 -2.7156 -2.7448
-2.7347 -2.7712 -2.8468 -2.9461 -3.0627 -3.1411
-3.2085 -3.2504 -3.2750 -3.3032 -3.3424 -3.4071
-3.4627 -3.5401 -3.6257 -3.6777 -3.7296 -3.7533
-3.7505 -3.7259 -3.7123 -3.7277 -3.7451 -3.7851
-3.8024 -3.8207 -3.8380 -3.8462 -3.8498 -3.8307
-3.8407 -3.8215 -3.7860 -3.7760 -3.7532 -3.7167
-3.6767 -3.6502 -3.6420 -3.6347 -3.6047 -3.5782
-3.5491 -3.4744 -3.3823 -3.3158 -3.2648 -3.2138
-3.1755 -3.1418 -3.1026 -3.0707 -3.0169 -2.9686
-2.9121 -2.8301 -2.7636 -2.6980 -2.6370 -2.5531
-2.4511 -2.3390 -2.2306 -2.1431 -2.0547 -1.9755
-1.8871 -1.8333 -1.7832 -1.6957 -1.6356 