Archivo de aceleración parte de la Red Nacional de Acelerógrafos (RENAC) Ecuador
          
Evento: 201604162358
Fecha del evento UTM (aammdd):                  2016    4   16
Hora del registro UTM (hhmmss): 23   59 25.00
Estación:                                      AMIL
Componente:                                        N
Frecuencia de muestreo (Hz):            1.000000e+02
Unidades: cm/s^2
_____________________________________________
0.0969 -0.0588 -0.1902 -0.3027 -0.3985 -0.4713
-0.4754 -0.4347 -0.3443 -0.2223 -0.0928 0.0326
0.1284 0.2069 0.2541 0.2793 0.2545 0.2151
0.2015 0.2075 0.2365 0.2667 0.2929 0.2822
0.2355 0.1599 0.0562 -0.0752 -0.1911 -0.2478
-0.2296 -0.1722 -0.1180 -0.0881 -0.0931 -0.1350
-0.1873 -0.2236 -0.2296 -0.2239 -0.2365 -0.2658
-0.3024 -0.3143 -0.2847 -0.2296 -0.1795 -0.1278
-0.0764 -0.0125 0.0250 0.0660 0.1126 0.1265
0.1126 0.0903 0.0925 0.1174 0.1552 0.1593
0.1230 0.0660 0.0411 0.0493 0.0903 0.1517
0.1895 0.2280 0.3052 0.4205 0.5163 0.5730
0.5995 0.5970 0.5563 0.4719 0.3569 0.2113
0.0878 -0.0396 -0.1773 -0.3200 -0.4464 -0.5258
-0.5935 -0.6777 -0.7832 -0.8497 -0.8765 -0.8500
-0.8355 -0.8437 -0.8535 -0.8135 -0.6767 -0.4706
-0.2378 -0.0402 0.1347 0.2879 0.4697 0.6673
0.8585 1.0070 1.0797 1.0857 1.0586 1.0482
1.0240 0.9562 0.8481 0.7243 0.5967 0.4952
0.3947 0.2560 0.0603 -0.1804 -0.4240 -0.6566
-0.8560 -1.0130 -1.1494 -1.2260 -1.2184 -1.1289
-0.9455 -0.6893 -0.3991 -0.1508 0.0455 0.1880
0.3093 0.3767 0.3849 0.3225 0.1949 0.0584
-0.0780 -0.1886 -0.2901 -0.3244 -0.3342 -0.3020
-0.2226 -0.0786 0.0928 0.2220 0.3323 0.4095
0.4842 0.5195 0.5570 0.5992 0.6354 0.6187
0.5551 0.4709 0.3874 0.3288 0.2466 0.1668
0.0859 0.0106 -0.0755 -0.1234 -0.1287 -0.1319
-0.1571 -0.1788 -0.1713 -0.1769 -0.2031 -0.2598
-0.3143 -0.3714 -0.4180 -0.4659 -0.4820 -0.4413
-0.3685 -0.2898 -0.2472 -0.2217 -0.2063 -0.1769
-0.1190 -0.0184 0.1038 0.2403 0.3871 0.5415
0.6849 0.7615 0.7552 0.6433 0.4483 0.2135
-0.0178 -0.1921 -0.2872 -0.3295 -0.3241 -0.2797
-0.1801 -0.0736 -0.0061 0.0295 0.0351 0.0257
-0.0307 -0.0707 -0.0934 -0.0865 -0.0578 0.0232
0.1394 0.2173 0.2415 0.1899 0.1171 0.0118
-0.0881 -0.1845 -0.2100 -0.1602 -0.0676 0.0408
0.1369 0.2245 0.2359 0.2116 0.1416 0.0698
-0.0109 -0.0903 -0.1561 -0.2211 -0.2560 -0.2519
-0.1984 -0.1376 -0.0525 0.0087 0.0288 0.0099
-0.0147 -0.0184 -0.0008 0.0042 -0.0436 -0.1026
-0.1751 -0.2371 -0.2954 -0.3109 -0.2866 -0.2242
-0.1139 0.0238 0.2154 0.4287 0.6405 0.8147
0.9537 1.0728 1.1655 1.2137 1.1771 1.0293
0.7905 0.5305 0.2507 -0.0307 -0.3052 -0.5727
-0.7709 -0.8916 -0.9638 -1.0035 -0.9840 -0.9115
-0.8094 -0.6698 -0.5185 -0.3887 -0.2743 -0.1483
-0.0670 -0.0235 0.0304 0.1029 0.1921 0.2715
0.3701 0.4839 0.6247 0.7568 0.8421 0.8667
0.8692 0.8478 0.7775 0.7003 0.6112 0.5270
0.4268 0.3118 0.1776 0.0408 -0.0506 -0.0963
-0.1268 -0.1905 -0.2797 -0.3745 -0.4514 -0.5015
-0.5437 -0.5923 -0.6496 -0.6714 -0.6710 -0.6367
-0.5800 -0.5075 -0.4057 -0.3106 -0.2428 -0.2346
-0.2491 -0.2586 -0.2456 -0.2627 -0.3187 -0.3364
-0.2661 -0.0859 0.1672 0.4331 0.6260 0.7489
0.8267 0.8680 0.8642 0.8254 0.7820 0.6972
0.5834 0.4338 0.2532 0.0739 -0.0654 -0.1391
-0.1845 -0.2434 -0.3358 -0.4271 -0.5160 -0.6074
-0.6909 -0.7977 -0.9313 -1.0473 -1.0854 -1.0319
-0.9011 -0.7193 -0.5110 -0.2787 -0.0263 0.2592
0.5261 0.7659 0.9323 0.9950 0.9792 0.9316
0.9332 0.9250 0.8677 0.7476 0.6168 0.4747
0.2989 0.0673 -0.2116 -0.4854 -0.7536 -0.9890
-1.1516 -1.1765 -1.0864 -0.9134 -0.7208 -0.5337
-0.3487 -0.1694 -0.0165 0.0830 0.1394 0.1249
0.0862 0.0452 0.0065 -0.0307 -0.0635 -0.0575
0.0049 0.1473 0.3222 0.4854 0.5923 0.7060
0.8456 0.9487 0.9647 0.8689 0.7448 0.5390
0.2866 0.0789 -0.0534 -0.1082 -0.0912 -0.0355
-0.0210 -0.0383 -0.0389 -0.0430 -0.0931 -0.1902
-0.3354 -0.4883 -0.6121 -0.7051 -0.8002 -0.8604
-0.8645 -0.8210 -0.7123 -0.5110 -0.2551 -0.0213
0.1369 0.1886 0.1398 0.0077 -0.1508 -0.3033
-0.3411 -0.2557 -0.0897 0.0859 0.2570 0.4476
0.6216 0.7564 0.7712 0.6944 0.5273 0.3465
0.1861 0.0455 -0.0758 -0.1864 -0.2255 -0.1974
-0.0874 0.0310 0.1438 0.2012 0.2422 0.2749
0.3014 0.3118 0.2538 0.1675 0.0314 -0.0673
-0.1379 -0.1448 -0.1013 -0.0033 0.1205 0.2192
0.2611 0.2166 0.1130 -0.0553 -0.2519 -0.4813
-0.6739 -0.7977 -0.8330 -0.8144 -0.7590 -0.6509
-0.4457 -0.1826 0.1013 0.3878 0.6389 0.8409
0.9858 1.0731 1.0596 0.9650 0.7974 0.6307
0.5106 0.4662 0.4489 0.3947 0.3206 0.2381
0.1492 0.0213 -0.1023 -0.2100 -0.2961 -0.3714
-0.4227 -0.4470 -0.4366 -0.3421 -0.2270 -0.0903
0.0336 0.1476 0.2258 0.2667 0.2318 0.1338
0.0222 -0.0909 -0.1958 -0.3525 -0.4842 -0.6194
-0.7177 -0.8084 -0.8403 -0.8125 -0.7275 -0.5888
-0.4706 -0.3562 -0.2784 -0.2198 -0.2743 -0.4155
-0.5894 -0.7171 -0.7596 -0.7189 -0.5923 -0.4032
-0.2009 -0.0159 0.1782 0.3408 0.4423 0.5088
0.5976 0.7026 0.8324 0.9695 1.1053 1.2411
1.3908 1.4960 1.4859 1.3555 1.0949 0.7252
0.2513 -0.2472 -0.7082 -1.0703 -1.2972 -1.3870
-1.3804 -1.3196 -1.2083 -1.0586 -0.8510 -0.6427
-0.4429 -0.2248 0.0421 0.3222 0.5642 0.7574
0.9008 0.9997 1.0167 1.0152 1.0467 1.1204
1.1434 1.0590 0.8718 0.6367 0.3688 0.0758
-0.1669 -0.3383 -0.4341 -0.5444 -0.6565 -0.7820
-0.8425 -0.7829 -0.6244 -0.4451 -0.2973 -0.1265
0.0462 0.2327 0.3953 0.5324 0.5790 0.5598
0.4839 0.3553 0.1908 -0.0124 -0.1914 -0.3263
-0.3874 -0.4224 -0.4464 -0.5006 -0.6036 -0.7259
-0.8302 -0.8837 -0.9005 -0.9093 -0.8897 -0.7905
-0.5954 -0.2775 0.1476 0.6578 1.1466 1.4957
1.6873 1.7642 1.7651 1.6719 1.4853 1.2439
0.9427 0.5938 0.2705 -0.0219 -0.2639 -0.4334
-0.5050 -0.4987 -0.4360 -0.3222 -0.2050 -0.1439
-0.2075 -0.3808 -0.6099 -0.7898 -0.8929 -0.9039
-0.8248 -0.6446 -0.3525 -0.0184 0.3449 0.6707
0.9253 1.0958 1.2086 1.2852 1.3334 1.3114
1.2080 1.0243 0.7460 0.4495 0.1539 -0.0991
-0.3651 -0.6228 -0.8125 -0.8989 -0.9118 -0.8740
-0.7883 -0.7073 -0.6137 -0.5144 -0.3399 -0.1271
0.0380 0.0711 0.0225 -0.0326 -0.0537 -0.0477
-0.0477 -0.0238 -0.0058 0.0912 0.2721 0.5129
0.7054 0.7747 0.7183 0.5538 0.3654 0.2233
0.1999 0.2311 0.2784 0.3033 0.3244 0.3733
0.4202 0.4262 0.3528 0.1924 -0.0553 -0.3194
-0.5226 -0.6282 -0.7035 -0.7476 -0.7457 -0.6871
-0.5507 -0.3660 -0.1867 -0.0405 0.0786 0.1240
0.1086 0.0540 0.0310 0.0559 0.1335 0.2151
0.2787 0.3928 0.5901 0.8604 1.1059 1.2770
1.4009 1.5175 1.5795 1.5209 1.3070 1.0051
0.7092 0.4583 0.2705 0.1237 -0.0424 -0.2327
-0.4549 -0.7391 -1.0646 -1.3898 -1.6567 -1.8193
-1.8672 -1.8297 -1.7264 -1.5616 -1.3271 -1.1018
-0.9071 -0.7022 -0.4939 -0.2746 -0.0411 0.1820
0.3197 0.3799 0.4208 0.4776 0.5453 0.5775
0.5481 0.4312 0.3024 0.1612 0.0692 0.0509
0.0603 0.0525 0.0014 -0.0210 -0.0033 0.0770
0.1410 0.1962 0.2198 0.2129 0.1498 0.0638
-0.0641 -0.2374 -0.3692 -0.4442 -0.4227 -0.3200
-0.0789 0.2374 0.5787 0.8141 0.8708 0.7199
0.4190 0.1032 -0.1227 -0.1602 -0.0288 0.2456
0.6455 1.1699 1.7103 2.1502 2.3283 2.2548
1.9904 1.5253 0.9109 0.1842 -0.5648 -1.2238
-1.7059 -2.0494 -2.2567 -2.3141 -2.1808 -1.8934
-1.5212 -1.0763 -0.6197 -0.1561 0.2472 0.5431
0.7435 0.8727 0.9093 0.8327 0.6361 0.3758
0.1316 -0.0547 -0.1577 -0.1886 -0.1602 -0.1489
-0.1599 -0.2478 -0.4227 -0.6723 -0.9068 -1.0643
-1.1529 -1.1979 -1.2244 -1.1494 -0.9713 -0.7300
-0.6250 -0.6975 -0.9004 -1.0845 -1.1566 -1.0753
-0.8648 -0.6654 -0.4662 -0.3150 -0.1186 0.0890
0.3137 0.4861 0.5841 0.6625 0.7423 0.9027
1.0905 1.3060 1.4258 1.4866 1.5282 1.5011
1.3760 1.1806 0.9934 0.8724 0.8125 0.7615
0.7363 0.6575 0.5091 0.2472 -0.1199 -0.4776
-0.7508 -0.9506 -1.1232 -1.2534 -1.2783 -1.1948
-1.0441 -0.8223 -0.5992 -0.3966 -0.1889 0.0887
0.4555 0.8229 1.1579 1.4226 1.6293 1.7799
1.8691 1.8575 1.7443 1.5247 1.1815 0.7612
0.3042 -0.1861 -0.7561 -1.3829 -2.0500 -2.6150
-2.9821 -3.1009 -2.9890 -2.7114 -2.3513 -2.0264
-1.7352 -1.3958 -0.9490 -0.4577 0.0036 0.3572
0.6071 0.7731 0.8702 0.9348 0.9821 1.0148
1.1087 1.2187 1.3136 1.3413 1.2799 1.1604
0.9928 0.8620 0.7278 0.5633 0.3588 0.1788
0.0017 -0.1520 -0.2418 -0.2819 -0.2850 -0.2579
-0.1880 -0.1552 -0.1319 -0.0663 0.0436 0.1539
0.1955 0.1584 0.0235 -0.1750 -0.3862 -0.5611
-0.5979 -0.4754 -0.2920 -0.1038 0.1388 0.3909
0.5233 0.5192 0.4930 0.5141 0.6168 0.7085
0.7281 0.7196 0.7189 0.6874 0.5806 0.4278
0.2794 0.2207 0.2037 0.1769 0.0446 -0.1697
-0.3915 -0.5607 -0.6896 -0.8557 -1.0867 -1.3498
-1.4465 -1.3167 -1.0136 -0.6260 -0.2255 0.0950
0.2693 0.3140 0.2686 0.1461 -0.0020 -0.1331
-0.2318 -0.2645 -0.2800 -0.3439 -0.4684 -0.6276
-0.8283 -1.0706 -1.2833 -1.3448 -1.2540 -1.0523
-0.8122 -0.6014 -0.4189 -0.1782 0.1205 0.4038
0.6254 0.8299 1.0870 1.3927 1.6826 1.8389
1.8348 1.7002 1.4727 1.1554 0.7968 0.4212
0.0815 -0.2283 -0.4779 -0.6770 -0.8381 -1.0508
-1.1945 -1.2940 -1.2943 -1.1147 -0.9915 -0.7608
-0.4079 -0.0317 0.2444 0.4719 0.5904 0.5270
0.3625 0.1376 -0.1495 -0.4136 -0.6591 -0.9751
-1.2988 -1.5345 -1.6073 -1.5433 -1.3476 -1.0640
-0.6761 -0.1807 0.4029 0.9411 1.3716 1.6813
1.9136 2.0125 1.9331 1.7894 1.5584 1.1976
0.7341 0.2472 -0.1993 -0.5239 -0.6937 -0.7763
-0.8374 -0.8648 -0.9036 -1.0167 -1.2108 -1.4361
-1.6334 -1.7948 -1.8934 -1.9290 -1.8795 -1.7686
-1.6050 -1.3763 -1.0643 -0.6162 -0.1126 0.3156
0.5425 0.6733 0.7725 0.8488 0.8762 0.8012
0.6770 0.5784 0.6339 0.8106 1.0980 1.4759
1.8836 2.1471 2.2287 2.1801 1.9983 1.7131
1.3454 0.9427 0.5192 0.2085 0.1026 0.2066
0.4167 0.6178 0.7212 0.7457 0.7186 0.5708
0.2639 -0.2245 -0.7936 -1.3895 -1.9186 -2.2892
-2.4376 -2.3311 -1.9933 -1.4714 -0.8859 -0.3225
0.1398 0.4801 0.6458 0.6024 0.3676 0.0534
-0.2649 -0.5790 -0.8566 -1.0214 -1.0227 -0.8963
-0.7451 -0.6014 -0.3298 0.1023 0.6096 1.0492
1.4239 1.7207 1.8780 1.8364 1.6413 1.3602
1.0101 0.6506 0.2942 -0.0367 -0.3547 -0.6871
-1.0643 -1.4201 -1.6886 -1.8367 -1.9246 -1.9681
-1.8801 -1.6337 -1.2720 -0.8859 -0.4687 -0.1205
0.1092 0.2699 0.4023 0.5116 0.5447 0.5233
0.3890 0.1877 -0.1089 -0.4927 -0.8926 -1.2130
-1.3678 -1.3958 -1.2906 -1.0640 -0.7025 -0.2819
0.1505 0.4732 0.7350 0.9591 1.0880 1.0627
0.9376 0.8633 0.8964 1.1554 1.6656 2.4222
3.2037 3.8541 4.2511 4.3334 4.0693 3.4535
2.5239 1.3952 0.1643 -1.0860 -2.1168 -2.8558
-3.3231 -3.7022 -4.0690 -4.4584 -4.8445 -5.1278
-5.2475 -5.2154 -5.0840 -4.7335 -4.0658 -3.0817
-1.8880 -0.6676 0.3991 1.2345 1.8304 2.2205
2.4385 2.4855 2.3223 1.9211 1.3640 0.8028
0.3540 0.0399 -0.1552 -0.2894 -0.3493 -0.3159
-0.1971 -0.0068 0.1369 0.2053 0.2346 0.3676
0.5951 0.8066 0.9799 1.0363 1.0145 1.0076
1.1368 1.3243 1.4072 1.3454 1.1204 0.8021
0.4757 0.1372 -0.1817 -0.4656 -0.8242 -1.3690
-1.9504 -2.3374 -2.5098 -2.4902 -2.4061 -2.2986
-2.1927 -2.0147 -1.6687 -1.0851 -0.3392 0.3843
1.1289 1.8471 2.4830 3.0143 3.4419 3.5941
3.4548 3.0565 2.4499 1.8045 1.1746 0.6247
0.0540 -0.4927 -0.9490 -1.2272 -1.2253 -0.9821
-0.5778 -0.0928 0.4208 0.8705 1.2030 1.3508
1.3325 1.1806 0.9172 0.6638 0.4555 0.3134
0.2415 0.2296 0.2179 0.0758 -0.3093 -0.8708
-1.3845 -1.6936 -1.7311 -1.4818 -0.9814 -0.3395
0.2772 0.8548 1.4418 1.9608 2.3462 2.4552
2.3506 2.1716 1.9712 1.6826 1.3196 0.9115
0.4839 0.1136 -0.1807 -0.3732 -0.4738 -0.4552
-0.3102 -0.0137 0.3644 0.6789 0.8081 0.7423
0.5110 0.2343 -0.1360 -0.5554 -0.9672 -1.3085
-1.6533 -2.0018 -2.2009 -2.1247 -1.7034 -1.1377
-0.6430 -0.4290 -0.3112 -0.1038 0.2973 0.8141
1.3432 1.7138 1.8723 1.8382 1.7182 1.4790
1.1100 0.6449 0.2261 -0.0849 -0.3146 -0.2422
-0.3200 -0.4961 -0.7218 -1.0029 -1.2442 -1.3051
-1.0845 -0.7785 -0.4662 -0.1615 0.0559 0.1631
0.3087 0.3459 0.2475 0.0039 -0.3235 -0.6260
-0.8308 -0.8109 -0.6153 -0.2737 0.1524 0.5816
0.9855 1.2925 1.5880 1.7995 1.8959 1.8568
1.6404 1.2487 0.7275 0.1779 -0.3833 -0.8034
-1.0539 -1.1800 -1.2483 -1.2351 -1.0782 -0.8283
-0.5147 -0.2916 -0.2176 -0.1908 -0.1965 -0.1952
-0.1776 -0.0654 0.0837 0.2762 0.5179 0.7334
0.9569 1.1072 1.1456 1.0347 0.8220 0.7369
0.6811 0.5765 0.4836 0.2715 -0.0345 -0.3695
-0.6326 -0.8910 -1.1639 -1.4831 -1.7390 -1.7705
-1.5776 -1.2534 -1.0051 -0.8160 -0.6562 -0.5485
-0.5229 -0.5872 -0.6001 -0.4782 -0.2327 0.1420
0.5500 1.0092 1.4541 1.8550 2.1382 2.2325
2.1089 1.7774 1.2584 0.5938 -0.0537 -0.6241
-1.1497 -1.6671 -2.0790 -2.3657 -2.4722 -2.4461
-2.3071 -2.1149 -1.8783 -1.6693 -1.6167 -1.7582
-2.0276 -2.2986 -2.4319 -2.2554 -1.8811 -1.3356
-0.6641 0.1224 0.9383 1.7412 2.4701 2.9963
3.2434 3.1816 2.9049 2.5142 2.1512 1.7787
1.4768 1.2547 1.0987 1.0665 1.2219 1.5427
1.9722 2.4420 2.8684 3.1744 3.2125 3.0445
2.6780 2.2227 1.7743 1.4349 1.1702 0.9635
0.7769 0.5472 0.3503 0.2318 0.2028 0.2047
0.2094 0.0789 -0.2658 -0.8935 -1.6753 -2.5063
-3.2478 -3.9262 -4.3434 -4.3570 -3.9029 -3.1164
-2.0815 -0.8573 0.2841 1.2477 1.9340 2.4779
2.5781 2.6071 2.3913 1.8127 1.1737 0.5460
0.0468 -0.3257 -0.3502 -0.2248 0.0055 0.3266
0.6295 0.7432 0.7747 0.7391 0.4691 -0.0118
-0.5670 -1.1815 -1.8757 -2.5520 -3.1091 -3.5780
-3.9593 -4.2130 -4.3437 -4.3680 -4.3264 -4.2029
-4.0107 -3.7664 -3.5405 -3.3083 -3.0899 -2.9071
-2.7757 -2.5737 -2.1779 -1.5146 -0.5749 0.4864
1.5433 2.5176 3.3584 3.9187 4.1273 4.0564
3.7129 3.1756 2.5495 1.8836 1.2131 0.5182
-0.1495 -0.7432 -1.2635 -1.6205 -1.7188 -1.5817
-1.2590 -0.7722 -0.2135 0.3673 0.9695 1.5130
1.9038 2.0336 2.0194 1.9161 1.6697 1.2758
0.7845 0.1933 -0.4735 -1.0693 -1.5801 -1.9296
-2.0219 -1.7856 -1.3091 -0.7353 -0.0748 0.6102
1.2203 1.7081 2.0163 2.0979 2.0384 2.0292
2.0951 2.1364 2.0459 1.8587 1.6621 1.4138
1.0665 0.5248 -0.1709 -0.9534 -1.7254 -2.3846
-2.8769 -3.0858 -2.9607 -2.5510 -2.0015 -1.4689
-1.0148 -0.6458 -0.3168 0.0235 0.3496 0.6005
0.7565 0.8850 1.0139 1.1088 1.0766 0.8428
0.3919 -0.2485 -0.9679 -1.7330 -2.5057 -3.2087
-3.7538 -4.0863 -4.2123 -4.0812 -3.6836 -3.0108
-2.1540 -1.2940 -0.5081 0.2718 1.0533 1.6898
2.0903 2.2703 2.3434 2.2725 1.9801 1.4302
0.6503 -0.1492 -0.7353 -0.9843 -0.8844 -0.5850
-0.2860 -0.0011 0.2869 0.6244 0.9692 1.2616
1.3813 1.2436 0.8964 0.4984 0.2570 0.2787
0.6373 1.2272 1.9968 2.8476 3.6237 4.2322
4.6529 4.8322 4.8029 4.6393 4.3056 3.7097
2.7918 1.6287 0.3720 -0.8380 -1.9079 -2.8015
-3.5619 -4.0466 -4.2262 -4.1439 -3.8748 -3.4163
-2.8123 -2.1764 -1.5912 -1.1796 -0.9417 -0.9332
-1.0098 -1.0640 -1.0293 -0.8415 -0.4807 0.0522
0.6477 1.2134 1.6498 1.8817 1.8613 1.5726
0.9666 0.1420 -0.7300 -1.4963 -2.0585 -2.3960
-2.5022 -2.4045 -2.1426 -1.7727 -1.2486 -0.5604
0.2214 1.0016 1.7406 2.4502 3.0376 3.4425
3.5746 3.3540 2.8296 2.0828 1.1926 0.3002
-0.4728 -1.0618 -1.3722 -1.4790 -1.4336 -1.2918
-1.1755 -1.1733 -1.2943 -1.5647 -1.9775 -2.4713
-3.0212 -3.4529 -3.8238 -4.1304 -4.2646 -4.0712
-3.5897 -2.8709 -1.9479 -1.0964 -0.3213 0.3837
1.0117 1.4828 1.8669 2.1676 2.3727 2.4754
2.3472 1.9410 1.3785 0.9209 0.5103 0.1101
-0.2913 -0.6411 -0.8989 -1.0196 -0.9884 -0.9266
-0.8825 -0.8979 -1.0470 -1.2839 -1.4654 -1.5212
-1.3555 -0.9991 -0.5740 -0.1483 0.2627 0.6131
0.9241 1.1746 1.3842 1.6344 1.9259 2.0989
2.0642 1.8912 1.7456 1.6432 1.6022 1.6218
1.5452 1.3501 1.0120 0.7186 0.4823 0.4231
0.5456 0.8541 1.3426 1.9259 2.5807 3.1665
3.6804 3.9798 4.0135 3.6924 3.0770 2.1984
1.1185 -0.0017 -1.0589 -1.9564 -2.7168 -3.1479
-3.1702 -2.8157 -2.2378 -1.6098 -0.9546 -0.3376
0.2148 0.6534 1.0142 1.2673 1.3706 1.3895
1.4084 1.4998 1.6653 1.7614 1.6341 1.3300
0.8803 0.3260 -0.1612 -0.5658 -1.0013 -1.4891
-2.0172 -2.5573 -2.9878 -3.2118 -3.2812 -3.3057
-3.3536 -3.4743 -3.7122 -4.0318 -4.4436 -4.8561
-5.2062 -5.4722 -5.6222 -5.5803 -5.2254 -4.5051
-3.3981 -2.0248 -0.5462 0.7829 1.7588 2.1871
2.0645 1.6180 1.0694 0.6033 0.3046 0.2567
0.3799 0.6061 0.8718 1.1803 1.4462 1.5625
1.5896 1.5427 1.4992 1.4705 1.4081 1.2871
1.1595 1.1116 1.1847 1.2581 1.2799 1.2556
1.2701 1.3158 1.4330 1.7443 2.2533 2.9282
3.4961 3.8875 4.0510 3.9893 3.7828 3.5065
3.2402 2.9777 2.7738 2.5829 2.4007 2.1531
1.8077 1.4330 1.0297 0.5961 0.1407 -0.2661
-0.5144 -0.4898 -0.1864 0.3134 0.9008 1.4793
1.9526 2.2908 2.4691 2.5000 2.4014 2.3031
2.2823 2.3588 2.4842 2.5696 2.6979 2.7641
2.7723 2.6112 2.2889 1.9139 1.5379 1.2439
0.9739 0.6348 0.2204 -0.2185 -0.6707 -1.1040
-1.5893 -2.0903 -2.6074 -3.1535 -3.6981 -4.2703
-4.8760 -5.5059 -6.0762 -6.5020 -6.7430 -6.7380
-6.4582 -5.8141 -4.8422 -3.6826 -2.4492 -1.1765
0.1738 1.5628 2.8211 3.8207 4.5187 4.9488
5.1769 5.2110 5.1461 5.0739 5.0717 5.0332
4.8316 4.3655 3.7523 3.0751 2.2195 1.0921
-0.2116 -1.4415 -2.2999 -2.5791 -2.3635 -1.7935
-1.0132 -0.1791 0.5214 1.0063 1.1362 0.8872
0.3269 -0.4413 -1.3035 -2.2469 -3.1564 -3.8937
-4.3431 -4.4235 -4.1799 -3.8187 -3.5206 -3.3643
-3.3769 -3.5468 -3.8301 -4.0891 -4.2215 -4.1090
-3.6990 -3.0086 -2.1029 -1.0599 0.0623 1.1834
2.2110 2.9768 3.4110 3.4986 3.2957 2.8791
2.3456 1.7689 1.2540 0.7502 0.2239 -0.2787
-0.7359 -1.0775 -1.1834 -0.9389 -0.5245 -0.1315
0.1344 0.2494 0.2236 0.1016 -0.1700 -0.6112
-1.0898 -1.5606 -1.9589 -2.1899 -2.1760 -1.9035
-1.4141 -0.7857 -0.1344 0.5066 1.0536 1.4223
1.5348 1.3602 0.9874 0.4804 -0.1142 -0.7498
-1.2991 -1.6072 -1.6211 -1.3851 -0.9140 -0.2989
0.4095 1.1422 1.9407 2.7543 3.4252 3.9039
4.1600 4.1537 3.8289 3.2925 2.6623 1.9725
1.1960 0.3723 -0.5519 -1.4951 -2.3339 -3.0218
-3.6760 -4.3210 -4.8722 -5.2840 -5.3278 -4.8851
-3.9539 -2.7319 -1.3236 0.1603 1.4667 2.4089
2.9541 3.1583 3.0600 2.7055 2.1468 1.4847
0.9808 0.7618 0.7839 0.9121 0.9446 0.8954
0.7946 0.7470 0.7984 0.8100 0.6985 0.5753
0.5787 0.7004 0.8081 0.8308 0.8270 0.7895
0.7297 0.6279 0.4388 0.2589 0.1996 0.2646
0.3383 0.4486 0.6405 0.9726 1.4450 1.8915
2.2259 2.3651 2.3437 2.1509 1.9104 1.6564
1.4519 1.4286 1.5975 1.8843 2.1663 2.3261
2.2085 1.7365 0.8362 -0.3531 -1.7219 -3.1006
-4.4083 -5.5056 -6.2511 -6.4689 -6.1695 -5.5557
-4.6069 -3.4860 -2.3528 -1.2915 -0.3531 0.3285
0.7139 0.8816 1.0092 1.2131 1.4277 1.5402
1.4803 1.1734 0.5542 -0.3906 -1.5902 -2.9418
-4.2593 -5.3102 -6.1024 -6.7030 -7.1215 -7.2343
-6.9841 -6.2388 -4.9919 -3.5159 -1.9933 -0.5469
0.6786 1.5386 2.0264 2.2192 2.1764 1.9889
1.6911 1.3338 1.0832 1.0479 1.1740 1.3271
1.4277 1.3961 1.2619 1.0908 0.9433 0.8409
0.8343 0.9827 1.3637 1.9756 2.6443 3.1466
3.3259 3.1993 2.8681 2.4716 2.0002 1.5424
1.0763 0.6947 0.5113 0.6137 1.0026 1.5430
2.1228 2.4978 2.6037 2.3718 1.9177 1.3309
0.7457 0.2731 -0.1095 -0.4372 -0.6502 -0.6884
-0.5922 -0.4230 -0.3124 -0.1697 0.1190 0.5557
1.0517 1.5244 1.9407 2.3475 2.7562 3.1082
3.2223 2.9513 2.3122 1.3766 0.2683 -0.8998
-1.9977 -2.9326 -3.6073 -3.9870 -4.0233 -3.7021
-3.1702 -2.6087 -2.2104 -2.1600 -2.4596 -2.9298
-3.4031 -3.6669 -3.5194 -2.9370 -2.0941 -1.2294
-0.3780 0.4445 1.1759 1.7796 2.2542 2.5555
2.6695 2.6169 2.2983 1.7333 0.9720 0.1120
-0.7618 -1.5313 -2.1032 -2.5066 -2.7540 -2.8696
-2.8724 -2.7729 -2.6005 -2.3824 -2.0909 -1.7232
-1.2732 -0.8576 -0.5547 -0.3556 -0.2607 -0.3020
-0.5015 -0.7678 -1.0908 -1.4027 -1.6428 -1.7582
-1.6681 -1.3315 -0.7296 0.1073 1.1113 2.2835
3.5235 4.6542 5.5740 6.0728 6.1674 5.7971
4.9324 3.6385 2.1067 0.5233 -0.9877 -2.2813
-3.3527 -4.0815 -4.4978 -4.5801 -4.4446 -4.0831
-3.4658 -2.6185 -1.5367 -0.2743 1.1428 2.6320
4.1698 5.6014 6.7418 7.4849 7.8851 7.9052
7.6260 7.1543 6.5130 5.6427 4.4295 3.0858
1.8071 0.6950 -0.2485 -0.9524 -1.4062 -1.7223
-1.9296 -2.1004 -2.1644 -2.0342 -1.6911 -1.2568
-0.8333 -0.4035 0.0947 0.5381 0.8649 1.1409
1.2682 1.3104 1.3079 1.2446 1.0706 0.8450
0.6717 0.6282 0.6014 0.5630 0.3474 -0.1322
-0.7608 -1.3800 -2.0018 -2.7294 -3.1507 -3.3171
-3.1368 -2.5800 -1.7345 -0.8998 -0.2604 0.1127
0.0859 -0.1186 -0.4111 -0.7293 -1.1884 -1.7472
-2.3683 -2.9755 -3.5128 -3.8452 -3.9930 -3.8846
-3.5017 -2.9033 -2.0670 -1.1078 -0.0903 0.9194
1.9139 2.7877 3.4460 3.8175 3.9225 3.7296
3.2720 2.6242 1.7882 0.8018 -0.3521 -1.5786
-2.7785 -3.8430 -4.7093 -5.4328 -5.9773 -6.2612
-6.0580 -5.3887 -4.2092 -2.6421 -0.8771 0.7653
2.1398 3.1252 3.5935 3.7857 3.5462 3.2336
2.9809 2.8233 2.7883 2.8202 3.0382 3.2279
3.4870 3.7870 3.8506 3.7003 3.3414 2.6667
1.6331 0.4524 -0.6556 -1.6337 -2.1474 -2.0777
-1.6091 -0.7057 0.6383 2.2618 3.7945 5.2415
6.2528 6.7651 6.7144 6.1031 4.9708 3.1057
1.2629 -0.7467 -2.6257 -4.2397 -5.5941 -6.7219
-7.6260 -8.0555 -8.2405 -8.0082 -7.5110 -6.8678
-6.2474 -5.5651 -4.8539 -4.0560 -3.0593 -1.9145
-0.6411 0.6938 2.0078 3.1447 4.1399 4.9491
5.3862 5.4609 5.2582 4.8054 4.1563 3.4476
2.6484 1.6700 0.5866 -0.5774 -1.7916 -2.8838
-3.7160 -4.2908 -4.5996 -4.6305 -4.3929 -4.0040
-3.4302 -2.5844 -1.4213 0.0210 1.5436 2.9843
4.1872 5.1079 5.6257 5.6194 5.2047 4.4585
3.5342 2.6034 1.8030 1.0070 0.3106 -0.1486
-0.3874 -0.3301 -0.0194 0.5526 1.2235 1.9101
2.4496 2.7338 2.7247 2.4716 1.9810 1.2613
0.4502 -0.2409 -0.7057 -1.0775 -1.3309 -1.4878
-1.4513 -1.2786 -1.0315 -0.8138 -0.6770 -0.4514
-0.1586 0.1814 0.5122 0.8453 1.1897 1.5203
1.7809 1.9435 2.0497 2.2196 2.3519 2.2870
2.0415 1.6788 1.3681 1.1853 1.0984 0.9569
0.7643 0.5617 0.2602 -0.1208 -0.5368 -1.1207
-1.8029 -2.3670 -2.6036 -2.4555 -1.9882 -1.2521
-0.3480 0.7130 1.8197 2.8529 3.6603 4.1645
4.3510 4.1434 3.5648 2.8101 2.0636 1.3823
0.6818 -0.1085 -0.9688 -1.8281 -2.6162 -3.2310
-3.6067 -3.7072 -3.4898 -3.1885 -2.9701 -2.8926
-2.9689 -3.1750 -3.4998 -3.8830 -4.3248 -4.7364
-5.0184 -5.1265 -5.0439 -4.8192 -4.4181 -3.7970
-2.8397 -1.5461 -0.0865 1.3908 2.8000 4.1052
5.2523 6.1125 6.4891 6.5256 6.3164 5.8516
5.1287 4.1739 2.9935 1.6353 0.2756 -0.9423
-1.9063 -2.6367 -3.0747 -3.2556 -3.1551 -2.8501
-2.4253 -1.9217 -1.4585 -1.1242 -0.9650 -0.9833
-1.1736 -1.3444 -1.4812 -1.5385 -1.4632 -1.3649
-1.2480 -1.0372 -0.7028 -0.2343 0.2803 0.7073
0.9985 1.0517 0.8182 0.2712 -0.5280 -1.5814
-2.7719 -3.8294 -4.5378 -4.6321 -4.1118 -3.1715
-2.0279 -0.7864 0.4332 1.5181 2.4401 3.1457
3.6899 4.1389 4.5328 4.8514 5.1149 5.3414
5.5705 5.7539 5.7738 5.5028 4.8725 3.9804
2.9084 1.8376 0.8346 0.0326 -0.4530 -0.5992
-0.4816 -0.2317 0.0500 0.3282 0.6465 0.9071
1.0520 1.1809 1.4157 1.8011 2.3223 2.8177
3.1406 3.1835 2.9547 2.4792 1.8099 1.0016
0.1908 -0.4851 -0.9934 -1.3372 -1.6167 -1.9170
-2.1937 -2.3109 -2.2674 -2.0336 -1.5619 -0.8579
0.0059 0.8951 1.7050 2.3891 2.8539 3.1066
3.1290 3.0218 2.8580 2.5028 1.9690 1.3391
0.8390 0.5573 0.5195 0.6405 0.7628 0.9061
1.2071 1.7097 2.2779 2.7887 3.0530 2.9752
2.4178 1.4847 0.3578 -0.8837 -2.2699 -3.6914
-4.9903 -6.2347 -7.1924 -7.7650 -7.9168 -7.6235
-6.9728 -6.0668 -5.0553 -4.0223 -3.0243 -2.1076
-1.2833 -0.7044 -0.3717 -0.4170 -0.7038 -1.2001
-1.8833 -2.5636 -2.9912 -2.9430 -2.6682 -2.0503
-1.0482 0.3594 1.9438 3.6348 5.2589 6.5086
7.2570 7.6056 7.7026 7.5227 7.1704 6.7459
6.2490 5.7965 5.5926 5.4908 5.4347 5.3638
5.1918 4.8212 4.2499 3.4929 2.6270 1.6996
0.7602 -0.3543 -1.6844 -3.1031 -4.5599 -5.9225
-7.1697 -8.1872 -8.9813 -9.4543 -9.5199 -9.3112
-8.8921 -8.3712 -7.7634 -7.1168 -6.5445 -6.1055
-5.7879 -5.4221 -5.0436 -4.6131 -3.9634 -2.9963
-1.6753 -0.0524 1.7636 3.5648 5.2734 6.9353
8.4507 9.7449 10.7073 11.1601 11.0492 10.4164
9.2634 7.6692 5.7054 3.5516 1.3618 -0.6086
-2.1577 -3.3183 -3.9309 -4.1821 -4.1288 -3.8427
-3.3993 -2.8359 -2.3474 -1.9397 -1.7881 -1.8754
-2.0443 -2.1366 -1.9305 -1.5023 -0.9256 -0.1838
0.5973 1.4431 2.3834 3.2238 3.9139 4.3605
4.4260 4.0350 3.3751 2.4937 1.4160 0.1146
-1.3372 -2.8854 -4.4181 -5.5462 -6.3331 -6.6066
-6.6359 -6.6025 -6.6141 -6.5672 -6.3053 -5.8074
-4.8255 -3.3681 -1.5332 0.5633 2.8734 5.0657
6.8852 8.2667 9.1950 9.5571 9.2344 8.1936
6.5915 4.4774 2.0617 -0.4312 -2.7889 -4.7282
-6.0910 -6.8073 -6.9208 -6.4594 -5.5875 -4.4310
-3.1460 -1.9179 -0.9483 -0.3323 -0.1391 -0.4671
-1.2959 -2.3796 -3.4667 -4.3900 -5.0493 -5.3650
-5.3014 -4.8990 -4.1679 -3.1091 -1.8521 -0.5828
0.7650 2.1279 3.3354 4.1736 4.3989 3.9603
3.0036 1.8789 0.7391 -0.2579 -0.8954 -1.1755
-1.0785 -0.5891 0.2340 1.1337 1.8591 2.3440
2.4301 2.0588 1.3949 0.6849 0.1237 -0.0490
0.2756 1.1163 2.3349 3.9697 5.8346 7.4326
8.6691 9.4462 9.9025 9.9715 9.8769 9.5697
9.0066 8.2547 7.2592 6.1910 5.1234 4.3885
3.7970 3.3360 2.9494 2.3863 1.5733 0.5913
-0.7227 -2.4908 -4.5224 -6.5410 -8.2420 -9.5429
-10.2364 -10.3833 -9.9535 -9.0046 -7.7835 -6.4768
-5.4072 -4.8022 -4.7030 -4.9125 -5.2349 -5.6149
-6.0224 -6.2436 -6.2385 -5.9348 -5.1728 -4.2249
-3.1967 -2.3632 -1.8385 -1.8316 -2.1351 -2.5362
-3.1901 -3.8925 -4.6248 -5.1945 -5.7545 -5.6458
-5.0442 -4.3588 -3.3353 -2.2977 -1.4279 -0.8717
-0.2929 0.1631 0.4382 0.5759 0.4908 0.2844
0.1243 0.0021 -0.2002 -0.1517 0.3156 1.0612
2.0050 3.1706 4.3765 5.4687 6.3712 7.0812
7.6204 7.9402 8.0130 7.9043 7.6553 7.3881
7.3988 7.6500 8.1236 8.6811 9.0252 9.0097
8.5859 7.7732 6.5909 5.0717 3.3319 1.6293
0.2406 -0.5122 -0.4173 0.4653 1.9608 3.7819
5.5355 6.9460 7.7593 7.9141 7.5243 6.5839
5.2677 3.8821 2.7108 1.8751 1.1740 0.6241
0.1404 -0.3953 -1.0596 -2.0263 -3.2276 -4.6806
-6.2143 -7.6342 -8.8168 -9.5517 -9.9109 -9.7682
-8.9627 -7.7356 -6.0643 -3.9227 -1.6261 0.5743
2.4329 3.8544 4.6163 4.7975 4.3201 3.3767
2.0822 0.3597 -1.1342 -2.4653 -3.5112 -3.8178
-3.3073 -2.4366 -1.3110 0.0144 1.3435 2.4704
3.4473 4.0220 3.9417 3.5771 2.8536 1.5131
-0.4126 -2.8122 -5.5207 -8.0974 -10.3117 -11.8391
-12.7032 -12.5784 -11.7462 -10.2771 -8.3312 -5.9968
-3.6527 -1.6258 -0.0398 0.9373 1.7475 2.0305
2.0970 1.7002 0.8151 -0.5097 -1.9806 -3.4456
-4.7291 -5.4129 -5.5361 -5.0395 -4.0081 -2.4291
-0.5806 1.5714 3.7343 5.5494 6.7781 7.4571
7.4140 6.6444 5.1524 3.0723 0.7634 -1.5285
-3.2701 -4.3828 -4.7048 -4.3283 -3.2896 -1.8590
-0.2406 1.1264 2.2196 2.7436 2.7209 2.5678
1.9133 1.0565 0.2932 -0.3351 -1.0293 -1.6718
-2.0043 -2.1461 -2.1946 -2.0298 -1.7295 -1.1355
-0.7047 -0.0887 0.9613 2.2949 3.8437 5.4271
7.0169 8.3965 9.4055 10.1656 10.7202 10.8204
10.4328 9.5341 8.2333 6.1951 4.1364 2.3538
0.9745 -0.2292 -1.1138 -1.7043 -2.1228 -2.1407
-1.9910 -1.8291 -1.7796 -1.7349 -1.7295 -1.7084
-1.6072 -1.4330 -1.2619 -0.9921 -0.7488 -0.2752
0.1930 0.5066 0.4631 0.1451 -0.5793 -1.2455
-1.9072 -2.3210 -2.5999 -2.1940 -1.2152 -0.5305
0.9540 2.3286 3.7498 4.6630 5.2311 5.4656
5.1952 4.7103 4.1764 3.7586 3.2465 2.8331
2.1701 1.3004 0.1795 -0.8768 -2.0985 -3.5181
-5.0474 -6.5344 -8.0366 -9.3862 -10.2768 -10.8014
-10.7999 -10.1772 -9.0087 -7.6903 -6.1749 -4.5426
-3.0587 -1.6047 -0.4173 0.4272 0.9339 1.2682
1.3662 1.1617 1.0990 1.1891 1.3615 1.6423
1.9265 2.2268 2.4972 2.9153 3.6322 4.4667
5.4936 6.6876 7.7738 8.4718 8.9596 9.0882
8.9344 8.3883 7.7026 7.1080 6.3183 5.5907
4.9163 4.2899 3.5576 2.5898 1.3993 -0.2418
-2.0572 -3.5386 -4.7616 -5.6984 -6.3557 -6.5684
-6.4040 -6.0157 -5.3502 -4.7301 -4.2189 -3.8928
-3.7856 -4.0598 -4.9090 -6.0454 -7.7155 -9.4603
-11.1487 -12.6524 -13.1383 -12.6543 -11.2751 -8.8483
-5.7186 -2.4124 0.6402 2.9932 4.1355 3.9732
2.9532 1.0202 -1.7985 -5.0414 -7.8614 -10.1813
-11.8407 -12.7964 -13.1201 -12.8881 -12.1170 -10.9105
-9.5334 -8.0530 -6.4745 -4.8529 -3.3817 -2.0818
-0.9805 0.0389 0.8791 1.5666 1.8874 1.8915
1.6019 0.9522 -0.1073 -1.4182 -3.0300 -4.3759
-5.3817 -5.6893 -5.5178 -4.2432 -1.7185 0.8989
4.0094 6.8338 9.6129 11.9744 14.0091 15.6133
16.5618 17.0125 16.7238 15.7829 14.2460 12.2917
9.9009 7.4209 4.7944 2.0188 -0.6549 -2.8040
-4.1115 -4.4033 -3.6776 -1.9195 0.5939 3.7507
7.2990 10.5850 13.4289 15.4870 16.9895 17.8532
18.0202 17.6796 16.6542 15.2787 13.8537 12.6809
11.6627 10.8273 10.0033 9.0999 7.4927 5.7341
3.5374 0.7489 -1.3851 -3.4510 -5.3455 -7.0307
-8.4116 -9.6327 -10.5090 -10.8402 -10.8578 -10.6845
-10.0499 -8.9643 -7.9086 -7.0071 -6.4465 -6.4534
-6.7837 -6.9649 -6.9671 -6.5092 -5.4826 -4.0601
-2.5605 -0.8220 0.9210 2.5303 3.8093 4.5032
4.7285 4.2722 3.1753 1.2484 -1.2830 -4.2646
-7.5712 -10.8310 -13.8297 -16.1773 -17.5635 -17.9814
-17.6575 -16.8240 -15.7129 -14.4719 -13.3129 -12.2863
-11.5508 -11.3545 -11.5984 -12.1766 -12.8147 -13.3586
-13.6479 -13.4865 -12.7722 -11.5120 -9.8129 -7.7435
-5.5928 -3.5225 -1.7566 -0.5018 0.1965 0.5028
0.3837 -0.1331 -0.7375 -1.3674 -1.9485 -2.0935
-1.5773 -0.3622 1.4649 3.8730 6.7355 9.7821
12.9301 15.9905 18.7696 20.8087 22.2270 22.9260
22.7054 21.5067 19.2889 16.2064 12.2920 7.7716
2.9302 -1.9879 -6.5234 -10.4167 -13.6132 -16.1168
-17.8749 -18.6661 -18.3920 -16.9629 -14.6935 -11.7345
-8.4358 -4.9683 -1.6671 1.3479 3.8219 5.6042
6.7062 7.2838 7.7174 8.3155 9.1774 10.2119
11.6766 13.0237 14.2517 15.3780 16.5360 17.6191
18.4882 18.8773 18.2736 16.5934 13.9054 10.3213
6.1147 2.0081 -1.5429 -4.0579 -5.3266 -5.2579
-4.0371 -1.8634 1.1929 4.6743 8.1772 11.3214
13.7781 15.2043 15.5270 14.4906 11.9759 8.3121
3.8254 -1.0961 -6.2054 -10.9108 -14.9181 -17.8755
-19.8428 -20.7434 -20.7859 -19.8689 -18.1015 -15.9977
-13.6866 -11.1077 -8.1970 -5.0411 -1.4115 2.2230
5.6077 8.5043 11.1595 13.1217 14.4395 14.8750
14.5114 13.4431 11.6129 9.4994 6.9886 4.1342
1.3858 -1.2389 -4.1146 -6.3277 -8.0939 -9.5116
-10.9105 -12.0219 -12.7233 -13.2836 -13.1973 -12.5806
-11.6938 -10.8062 -9.6582 -8.3589 -7.0458 -5.8336
-4.8353 -4.1984 -4.2167 -4.7972 -5.8292 -6.9929
-8.0044 -8.6968 -8.9296 -8.6558 -7.8273 -6.4248
-4.8350 -3.2506 -1.4925 0.0103 1.2014 2.1477
2.7950 3.1498 3.5399 4.0914 4.4645 4.8763
5.3755 5.8667 6.6331 7.9657 9.2480 10.1703
10.6074 10.3247 9.7162 8.6042 6.8244 4.5562
2.1030 -0.3713 -2.5564 -4.2331 -5.5320 -6.8539
-7.8232 -8.6555 -9.2265 -9.6456 -9.7647 -9.4111
-8.6952 -7.4899 -6.0028 -3.6423 -1.7156 0.8343
3.3934 5.6896 7.6774 9.2760 10.8721 12.0594
13.0918 13.4954 12.9273 10.9947 8.9133 5.8702
2.8388 -0.8531 -4.1780 -6.9274 -9.5384 -11.1266
-12.7917 -14.0727 -15.4327 -16.0759 -16.2684 -16.4008
-16.5539 -16.2435 -16.4609 -16.3425 -15.2194 -13.6687
-11.4099 -8.8738 -5.7920 -2.6477 0.4076 3.4788
5.9736 7.4594 8.3593 8.4781 8.4554 7.7436
7.0888 5.2214 2.5536 -0.0364 -3.1116 -5.5758
-8.0838 -9.7795 -11.1934 -11.7115 -11.4320 -10.2953
-8.3092 -5.7019 -2.3897 1.0684 4.4941 7.4549
10.0153 11.7150 12.8296 13.1791 12.8671 11.9659
10.8771 9.4922 7.6402 5.8790 3.8831 1.5707
-0.5856 -2.3730 -4.1420 -5.8667 -7.4057 -8.8341
-10.1602 -10.6845 -10.2235 -8.9025 -6.1890 -2.3033
2.0459 6.5899 10.8815 14.5539 17.0739 18.4545
18.8792 18.1368 16.2398 13.5443 10.0994 6.2197
2.3387 -1.2968 -3.9794 -5.5973 -6.1484 -5.9127
-5.3748 -5.1819 -5.5358 -6.6006 -8.2984 -11.0759
-14.4146 -17.6559 -20.2279 -21.5980 -21.3087 -19.7886
-17.0527 -13.1884 -8.4185 -3.4280 1.3073 6.2074
10.1892 14.3526 17.4984 19.8274 20.7649 20.6628
19.6053 17.6150 15.1829 12.4609 9.8842 7.6415
5.9581 4.3485 2.6733 0.8025 0.4057 -1.2004
-2.6711 -3.9048 -5.7034 -7.7760 -9.7190 -10.9546
-11.2142 -10.2660 -8.0514 -4.4915 -0.4930 4.5653
9.4392 13.9599 17.7584 20.8531 22.5960 22.8488
21.4610 18.3199 13.4879 8.4870 3.2487 -2.2917
-7.1407 -10.9599 -13.5118 -15.0253 -14.9509 -13.7226
-11.4531 -8.5026 -4.8734 -1.3690 2.1846 5.2608
7.6733 9.5539 10.9773 11.6167 11.2685 10.2229
8.0868 4.9989 0.9673 -3.6902 -8.7251 -13.7575
-18.6627 -23.3340 -27.6240 -31.0975 -33.6724 -34.8720
-34.3760 -32.1737 -28.4238 -23.6674 -18.6926 -14.4199
-10.9231 -8.7919 -7.8642 -7.4980 -7.1275 -6.5896
-5.7788 -3.9772 -1.9532 0.6468 3.9080 7.2139
10.6556 13.9413 16.7153 18.7573 20.0644 20.6168
20.1488 18.7566 16.7944 14.6544 12.5939 10.7785
9.5240 8.8664 8.8843 9.2010 9.5508 9.1251
8.0959 6.4986 4.4415 2.1534 -0.0206 -1.6709
-2.8841 -3.1173 -2.4716 -1.3340 0.3109 2.1893
3.5739 4.3457 4.4481 4.1402 3.5680 3.0874
3.0238 3.4829 4.1563 4.9056 5.8141 6.5638
6.6407 5.9150 4.2017 1.2257 -2.2167 -5.5270
-8.6662 -11.2117 -12.9483 -13.5965 -13.0810 -11.2319
-8.4765 -5.3414 -2.5431 0.2227 2.6620 4.3832
5.9792 7.3781 9.2108 10.3411 11.6290 11.9504
11.9687 11.7843 10.8963 9.2215 5.7643 2.4603
-1.0983 -4.9333 -8.5458 -11.9113 -15.2225 -17.6461
-18.8700 -18.7336 -17.8799 -16.3005 -14.3752 -12.4599
-10.5219 -8.4563 -5.7353 -2.9071 -0.0304 2.6374
4.6119 6.1100 7.4657 8.8531 10.1968 10.8806
11.2307 10.9304 9.9504 8.5131 6.8137 4.3246
1.8622 -0.3439 -2.6052 -4.4228 -5.5500 -5.6407
-5.3628 -4.0131 -1.8184 0.7328 3.2954 5.8979
8.0316 9.3022 9.5936 8.7258 6.7138 3.5172
-0.3861 -4.7499 -8.9413 -12.6716 -15.3659 -17.0058
-17.2982 -16.3629 -14.0446 -10.5897 -6.5612 -2.5510
1.2049 4.3696 6.9514 8.7693 9.8145 9.9916
9.2921 7.9676 6.5748 5.5028 4.4185 4.6589
3.9190 3.9940 4.6151 5.0537 5.5686 5.6225
5.8148 5.5280 6.0070 6.9939 9.0983 11.4721
14.0494 16.1160 17.2274 17.2012 16.1664 14.1162
10.9483 7.5123 3.6738 -0.0203 -3.6268 -6.8306
-9.9541 -13.1658 -16.0459 -18.2959 -19.6578 -19.6584
-17.9020 -14.5141 -9.6418 -3.7251 2.8366 9.3258
15.3704 20.3360 24.0157 26.1165 26.7695 26.0617
24.3919 21.7121 18.2764 14.1528 9.2262 4.5732
-0.3439 -4.8085 -9.9717 -14.9017 -19.6213 -23.8908
-27.3098 -30.3135 -32.0561 -33.3554 -32.7210 -30.1512
-25.6038 -19.3692 -12.1032 -3.9227 4.7976 12.7959
20.2957 27.3001 33.0816 36.7269 37.9609 36.3847
31.5353 24.8044 16.5524 7.6743 -1.8681 -11.3667
-19.8734 -26.3635 -31.1971 -34.3360 -35.9195 -35.5341
-33.2104 -29.5988 -24.7013 -18.9737 -12.6174 -5.9042
1.3133 8.2755 14.7380 20.1501 24.7477 27.6748
29.3339 28.7632 26.3085 21.6781 15.4826 7.9531
-0.1520 -8.2077 -16.6513 -23.5675 -29.3474 -31.7640
-32.3366 -31.8201 -29.9886 -26.8706 -22.9722 -17.5298
-10.5752 -3.9218 2.5949 8.8405 15.1930 22.2018
29.2195 35.2603 40.1859 43.7512 45.0384 44.4996
43.3683 40.9252 37.4699 32.8431 27.7240 22.1309
16.1516 11.1081 6.6649 2.4881 -1.2414 -3.9987
-5.6489 -6.6847 -6.8120 -6.3920 -5.1577 -4.4392
-2.7473 -1.7938 -1.9356 -1.2773 -1.4500 -1.3312
-1.8414 -1.5864 -0.8664 0.0084 1.5109 3.7337
5.7407 7.8312 10.5097 12.5495 14.1556 15.8894
17.4946 17.8381 17.1732 15.3364 12.2057 8.3165
3.9666 -0.8286 -5.3978 -9.4354 -12.1961 -13.8262
-13.8017 -12.3701 -10.0218 -6.3658 -2.6783 1.1000
4.0983 6.4188 7.7105 7.9658 7.7237 6.6495
4.7270 2.3481 -0.0007 -3.1292 -4.6071 -5.8380
-7.1735 -8.1727 -8.5093 -8.2297 -8.3306 -8.3240
-9.3553 -10.6161 -12.4356 -14.1811 -16.2482 -17.8292
-19.4747 -21.1228 -22.0826 -21.9932 -20.7119 -18.6472
-15.6104 -12.9616 -10.6672 -9.2022 -8.0873 -7.3840
-6.8760 -6.9198 -7.5311 -8.5937 -10.5667 -13.0183
-15.5172 -17.8928 -19.9477 -21.0112 -20.9826 -19.9950
-17.8938 -15.0086 -11.5385 -7.9477 -4.1981 -0.8040
2.0778 4.7575 7.1726 9.5763 11.5244 13.0628
13.7942 14.0702 13.5522 12.8346 11.4573 10.3918
9.4941 8.1444 7.5961 7.8980 9.0513 10.1007
10.8160 10.2450 8.2512 4.7890 0.2888 -4.9560
-10.2027 -15.2484 -19.5447 -22.2821 -23.0176 -21.7445
-18.1396 -12.2031 -4.9799 2.6421 10.0232 16.6482
21.5045 24.7735 25.8812 25.0521 21.9794 17.4552
12.4149 7.4420 2.0831 -2.7612 -7.4227 -12.4523
-16.8287 -21.4729 -25.2713 -28.4442 -30.7556 -32.6281
-33.7801 -34.0767 -32.8925 -30.4928 -26.9566 -22.1725
-17.2059 -11.5643 -5.5078 0.8759 7.1959 12.8879
17.8491 21.6866 23.6681 24.5734 23.8326 21.4071
17.5368 12.7162 8.0575 3.8645 -0.1577 -3.0933
-4.6730 -4.7288 -3.0905 -0.3515 3.3452 7.3891
11.5389 15.1189 19.1811 22.8163 24.7587 24.6765
23.2874 21.3923 18.0278 14.3589 10.3260 5.5964
1.0508 -2.7977 -5.8213 -8.3920 -10.0952 -10.7044
-10.5953 -9.8457 -7.3254 -4.0686 -0.3987 2.8438
5.0660 6.3823 6.3454 5.9959 5.1442 4.1919
3.0181 1.9306 1.0190 0.6471 0.8409 1.7847
3.5667 5.5750 7.5782 8.8336 9.4793 9.2675
8.4788 7.3355 6.1989 5.2967 4.2949 3.9956
3.8220 4.0101 4.0996 4.2278 4.2612 4.3870
4.6192 4.3208 4.1522 3.6959 3.3285 2.8328
2.4562 2.2980 2.7531 2.9072 3.3691 3.0594
1.6665 0.1795 -1.6728 -3.5108 -5.2746 -6.8602
-8.5634 -10.1608 -11.3746 -12.4347 -13.4068 -13.5477
-14.1275 -14.1426 -13.6447 -12.8837 -11.9755 -10.8222
-8.9353 -7.0969 -4.7007 -1.8414 0.6994 3.0023
4.8196 5.6881 5.4732 4.7604 3.4057 1.2786
-0.8547 -3.3728 -6.0208 -8.3180 -9.8854 -10.9243
-10.8140 -9.7464 -7.6701 -4.8101 -1.1478 3.2434
7.8914 13.3521 18.8641 24.2060 29.2627 33.5184
36.6314 38.2552 38.1137 36.0645 32.2872 27.3364
21.6936 16.3158 11.2603 6.5899 3.0880 0.6207
-0.5765 -0.9332 -0.9549 -0.6647 -0.4350 -0.3770
-0.0370 0.2907 0.4445 0.3862 0.5082 0.5164
0.0219 -0.5358 -1.5467 -2.6575 -4.4011 -5.4495
-6.0633 -7.0235 -7.1139 -6.5713 -5.6086 -4.6342
-4.7515 -5.1189 -5.9577 -7.0105 -8.4072 -10.9338
-14.4300 -18.4818 -22.1734 -24.8497 -25.6659 -26.2378
-24.6130 -21.3957 -16.8287 -10.3272 -2.5160 6.0593
14.3289 21.7714 27.7801 31.7660 33.6655 33.3788
31.4622 28.3444 23.5370 18.6971 13.0496 8.3470
3.8478 0.3509 -1.9315 -3.5953 -3.9306 -4.2366
-4.0185 -3.5436 -3.3672 -3.7844 -4.2731 -5.3291
-6.4988 -7.9193 -9.4811 -11.0138 -12.2727 -13.4765
-14.2520 -14.7240 -15.5061 -15.5027 -15.3854 -15.2351
-14.9506 -14.4940 -13.8981 -13.2874 -12.1933 -10.9974
-9.4682 -7.1936 -4.2930 -0.9764 2.6053 6.1274
9.1484 11.5609 13.5711 14.9491 15.7908 16.2083
15.9568 15.2689 14.3627 13.6294 13.1655 12.9560
13.4832 14.4301 15.4233 16.7790 17.2353 17.0544
15.1215 12.3613 9.7963 6.2827 2.6563 -1.2029
-4.2195 -5.6146 -5.2708 -3.4522 -0.3206 3.0071
5.5485 6.9306 7.4698 7.2993 6.9539 6.3691
5.7363 5.0692 4.5152 5.0115 5.7779 7.6078
9.9614 13.2203 17.0106 20.4892 23.1576 24.6689
24.9727 23.9917 22.1883 18.8931 14.7537 9.9601
4.8839 -0.2815 -5.1151 -9.3008 -12.7032 -15.1157
-16.8879 -17.8534 -18.3532 -18.0873 -17.1221 -15.8455
-13.7493 -10.8052 -7.1331 -2.9335 2.2483 7.2454
11.5717 14.6415 16.1932 16.5077 15.3465 13.8039
11.2890 8.0981 4.7263 1.3820 -1.8152 -4.3894
-6.5836 -7.8371 -8.7456 -9.4786 -10.1037 -11.0371
-12.0950 -13.1141 -14.2995 -15.7573 -17.0887 -18.2779
-19.2280 -20.9728 -21.5265 -21.6286 -21.1140 -20.3930
-19.3140 -17.4929 -15.5877 -13.4695 -10.8878 -8.0501
-5.6496 -3.3820 -1.8662 -0.3294 1.1923 3.2957
5.2876 7.4978 9.6469 11.3883 13.0641 14.7613
15.8856 15.8752 14.8054 12.8312 9.6330 5.1993
0.8507 -3.6164 -7.8100 -11.3302 -14.0925 -16.1679
-16.6519 -15.6057 -13.3053 -10.0360 -5.9102 -1.9340
1.5821 4.0766 6.0038 6.9706 7.2574 8.7428
8.4532 8.7120 8.7482 8.7075 9.4081 9.6822
10.5847 10.1669 9.6182 8.9143 7.8558 6.9341
6.8058 6.8780 6.9539 7.4691 8.0512 8.3124
7.5293 6.1078 3.2428 -0.5015 -4.8794 -10.0587
-15.2310 -20.4352 -24.3704 -26.8784 -27.9605 -28.1956
-27.4371 -25.4919 -22.8270 -19.3282 -16.4877 -13.1906
-10.8002 -8.5108 -5.9599 -3.8969 -1.4418 -0.0341
1.7608 4.0186 6.0073 8.6492 11.2143 13.3143
15.0833 17.0903 19.2293 20.5084 21.6129 21.8325
21.8224 21.2710 19.9847 18.1047 15.3083 12.5469
9.5782 6.3854 3.2046 0.2315 -2.7237 -5.4400
-7.6594 -9.4099 -10.7831 -11.2300 -10.8941 -10.4293
-9.7637 -8.8609 -8.0618 -7.3099 -6.2609 -5.0203
-3.4475 -1.3964 1.1082 3.5840 5.7495 7.2230
7.8161 7.4449 5.9859 3.9562 1.1211 -2.2217
-5.5408 -8.5417 -11.0586 -13.0592 -14.5302 -15.5884
-16.0443 -15.7289 -14.9279 -14.0812 -13.1298 -12.2809
-11.6727 -11.1525 -10.6029 -10.0470 -9.3027 -8.3470
-7.4955 -7.0710 -7.2362 -7.9884 -9.0503 -10.4611
-11.7808 -12.3162 -12.2475 -11.3749 -9.5186 -6.8104
-3.5427 0.0046 3.7063 7.2070 10.1580 12.7801
14.9860 16.6731 17.9235 18.4775 18.5235 18.4743
18.4803 18.6719 19.1707 19.7616 20.2103 20.4224
20.2251 19.3469 17.6238 15.1593 12.0229 8.2090
3.8002 -0.9552 -5.7548 -10.1394 -13.8710 -16.5545
-17.8096 -17.6140 -16.1055 -13.6091 -10.4321 -7.0893
-4.0462 -1.4216 0.7130 2.3170 3.3991 3.8365
3.8172 3.1930 2.1685 0.9002 -0.3146 -1.3639
-1.9838 -2.2343 -2.0254 -1.5007 -0.7567 -0.0433
0.5548 1.3272 1.6650 2.3967 3.3096 4.4828
5.3670 6.1636 6.4409 5.9780 5.0500 3.6726
1.7255 -0.7088 -3.5162 -6.8921 -9.9077 -12.6965
-14.6783 -16.2744 -17.1706 -17.8100 -18.3198 -18.5319
-18.7232 -18.7644 -18.4121 -17.5200 -16.3812 -14.9748
-13.3621 -11.8971 -10.0861 -8.0589 -5.6685 -2.6083
0.2706 3.4964 6.4170 8.5705 10.1687 11.1210
11.6410 11.9709 11.7220 11.0709 9.7421 7.7351
5.1965 2.4313 -0.4665 -3.0196 -4.6361 -5.5185
-5.6240 -5.1066 -3.9303 -2.7070 -1.2023 0.3812
1.6524 2.3463 2.3604 1.8657 0.8305 -0.6798
-2.1127 -3.2263 -3.8880 -3.6344 -2.4851 -0.3792
2.4109 5.6039 8.8440 12.0368 14.9529 17.4341
19.3938 20.7198 21.0996 20.4154 19.2010 17.3175
15.2002 13.0281 11.6092 10.8705 11.0164 12.3305
14.1934 16.9554 19.8101 23.0634 25.8875 27.8680
29.2340 29.8457 29.3487 27.8778 25.7189 22.4943
18.9423 14.9617 11.1031 7.2407 3.4047 0.0093
-3.1204 -5.8916 -8.4106 -10.7519 -12.8156 -14.5419
-16.0428 -17.3713 -18.3375 -19.2548 -20.0048 -20.6202
-20.8808 -20.8253 -20.5219 -19.9436 -19.3755 -18.7695
-18.2527 -17.4951 -17.3067 -17.0581 -16.8731 -16.6431
-16.6090 -16.0191 -15.2666 -15.0476 -14.4300 -14.4161
-14.2712 -13.8659 -13.4289 -12.7996 -12.2320 -11.7149
-11.1320 -10.5087 -9.7013 -9.2224 -8.8326 -8.9035
-9.2145 -9.7533 -10.6205 -11.7773 -12.9165 -14.2226
-15.8260 -17.5623 -19.0364 -20.0051 -20.5512 -20.2915
-19.4766 -17.3694 -14.4095 -10.4784 -6.9113 -3.1964
0.0554 2.4134 4.2215 5.7669 7.4707 8.4608
9.5328 10.4917 11.2997 11.7837 12.1411 12.1871
12.0235 11.9927 11.9633 11.7415 11.4888 10.7205
9.4103 7.4175 5.1281 2.8482 0.7811 -0.6830
-1.5722 -1.8568 -1.9088 -1.6624 -1.2316 -0.5276
0.3402 1.4699 2.5993 3.6757 4.7115 5.7476
6.6486 7.7134 8.9061 9.9819 11.0766 11.9791
12.6282 12.7281 12.4905 11.6337 10.0490 7.9620
5.3840 2.9283 0.9374 -0.3773 -0.8938 -0.5093
0.3635 1.5938 3.3411 5.0512 6.8704 8.5976
10.6197 11.5105 11.3741 11.1116 9.6403 8.1101
5.8750 3.8541 1.6246 -1.2133 -3.6429 -5.5859
-6.7096 -7.4048 -7.1196 -6.7263 -6.0192 -5.4425
-5.0064 -4.9856 -5.2534 -5.3997 -6.1021 -7.0814
-8.3971 -9.9197 -11.5432 -13.2647 -14.9953 -16.5205
-17.9161 -18.6116 -18.8955 -18.5710 -17.5043 -15.7778
-13.6684 -11.2076 -8.4311 -5.6833 -3.1614 -1.0151
0.5633 1.3467 1.3417 0.3900 -1.4144 -4.1370
-6.9860 -9.8973 -11.7077 -13.0554 -13.5310 -12.1013
-10.2437 -7.3357 -3.9145 -0.3253 2.8063 5.3122
7.4118 8.5698 8.8065 8.5506 7.5605 5.9011
4.5741 3.4438 2.8659 2.6667 3.2910 3.9461
5.1262 6.2481 7.3875 8.9140 9.6088 10.0175
9.4062 8.1186 5.6641 2.7578 -0.7164 -4.2741
-7.7114 -10.5323 -12.7208 -14.3663 -14.8961 -14.7968
-13.6882 -11.4707 -8.4976 -5.2957 -1.5993 1.5868
4.2414 6.0681 7.1909 7.1509 6.0999 4.2839
1.7819 -1.3220 -4.9122 -8.4535 -11.8927 -14.6077
-16.2164 -16.3399 -15.2559 -13.2297 -10.6249 -8.1689
-6.0277 -4.5510 -3.8805 -3.9618 -5.0757 -6.3318
-8.6151 -10.8008 -12.7432 -14.4480 -15.2272 -15.3996
-14.5686 -13.2997 -10.9026 -7.8967 -4.5860 -0.8976
2.7339 6.1519 8.8941 11.2732 12.8101 13.3420
13.1914 12.5394 11.7837 10.7895 10.5217 10.0166
10.2671 10.3723 10.1877 10.3061 9.7884 9.6031
8.7473 7.7297 6.4551 4.7011 2.6207 0.1801
-2.7725 -5.6250 -8.3580 -10.5578 -12.2825 -13.4349
-13.8391 -13.7629 -12.9329 -11.8914 -10.1141 -7.9572
-5.7416 -3.5783 -1.4329 0.0598 1.0177 1.7223
1.6599 1.1690 0.4020 -0.1435 -0.2966 0.1748
1.5950 3.8188 6.8194 10.5507 14.3838 18.0473
21.2218 23.2915 24.1855 24.0440 22.8771 20.8106
18.0987 15.0833 11.8572 8.6329 6.1598 4.3331
3.2573 2.9976 3.6442 4.6917 5.9503 7.1676
8.0209 8.0417 7.3412 5.9837 3.8472 1.2957
-1.6362 -4.3601 -7.0414 -9.1480 -10.2200 -10.6899
-10.7368 -10.1535 -9.3774 -8.0485 -6.9277 -5.0518
-2.8853 -0.9578 1.4186 3.5828 5.9509 7.9465
9.7106 10.9600 11.4929 11.6394 11.8042 11.7926
11.8417 11.8468 12.0185 12.4767 13.3537 14.8004
16.4913 17.8841 19.0296 19.5309 19.0907 18.0202
16.0826 13.2601 9.3888 5.2186 0.7206 -3.9255
-8.2994 -12.4013 -16.2945 -19.6543 -22.2884 -24.4189
-25.9482 -26.6818 -26.9616 -26.5381 -25.5184 -23.9081
-21.7930 -19.2699 -16.1657 -12.8141 -9.1625 -5.4822
-1.8398 1.2972 3.8591 5.6065 6.6650 7.0897
6.7601 5.6786 4.0807 2.0781 -0.3001 -2.8529
-5.4331 -7.6748 -9.7404 -11.1351 -11.9062 -11.8955
-10.9164 -9.3585 -7.4586 -5.2566 -3.0104 -0.8008
1.2711 2.9910 4.3800 5.5696 6.6706 7.4383
8.2938 8.9968 9.5770 10.0575 10.2441 10.1593
9.7689 9.3129 8.8591 8.5295 8.3697 8.5305
8.8462 9.3863 10.2882 11.4570 12.6787 13.9319
15.0206 15.6153 15.6691 15.2847 14.3718 12.7162
10.9238 8.6801 6.1034 3.7485 1.3826 -0.7391
-2.5775 -3.9949 -5.3272 -6.8029 -8.2956 -10.1037
-12.1892 -14.6039 -16.8277 -18.7559 -20.3492 -21.0100
-21.0730 -20.1900 -18.6450 -16.5192 -13.6822 -10.7418
-7.7823 -5.2279 -3.1850 -1.7635 -0.9442 -0.8279
-1.1881 -2.1347 -3.4305 -4.8870 -6.4874 -8.0517
-9.2126 -9.8542 -9.9068 -9.0673 -7.7930 -6.1887
-4.3538 -2.0991 -0.2598 1.7614 3.3193 4.4175
5.4956 6.1132 6.4803 6.3530 6.7853 7.5939
8.5153 9.7500 10.9714 11.8001 12.2145 11.9599
10.9386 9.2310 7.0292 4.5801 1.7863 -0.5516
-2.3017 -3.2874 -2.8516 -2.9587 -2.1886 -0.7296
0.7089 2.2338 2.8829 3.3260 2.3075 0.2101
-2.2340 -4.6995 -6.8980 -8.5751 -9.7565 -10.3401
-10.7459 -10.2811 -8.9523 -7.5475 -6.1383 -5.1296
-4.5832 -4.5624 -5.0032 -5.6990 -6.3787 -6.9960
-7.2421 -7.4003 -7.5125 -7.2377 -6.7978 -6.3305
-5.3625 -4.0223 -2.2926 -0.2172 2.0819 4.3397
6.3041 7.8148 8.7309 8.9767 8.6839 7.9213
6.4882 4.4594 1.9300 -0.8815 -3.9132 -7.0049
-9.8687 -12.3285 -14.3953 -15.6823 -16.3065 -16.4628
-16.3371 -15.9416 -15.2666 -14.8207 -14.2009 -13.2076
-12.0887 -10.7393 -8.9403 -6.7591 -4.3683 -1.8388
0.7786 3.2232 5.4086 7.4320 8.9407 10.1120
10.9884 11.4658 11.5064 11.4582 11.1718 10.4974
9.7159 8.4722 6.9038 5.2428 3.7060 2.3044
1.2267 0.6412 0.3216 0.2495 0.5249 1.1201
2.2580 3.7032 5.4990 7.6415 9.6214 11.3123
12.4972 13.2572 13.4665 13.1353 12.2397 10.8642
8.9644 6.5796 4.0794 1.7356 -0.4053 -2.2551
-3.4614 -4.2173 -3.9454 -2.8932 -1.1786 1.2370
3.8447 6.5890 9.2351 11.8159 14.1531 16.1992
17.8167 18.9202 19.3715 19.0469 17.9232 16.1172
13.5950 10.4914 6.9079 2.9630 -1.1969 -5.2963
-9.4187 -13.3435 -16.5136 -19.2554 -21.5252 -23.2448
-24.3887 -25.1364 -25.1941 -24.6357 -23.4345 -21.5567
-19.1533 -16.2838 -13.0479 -9.7732 -6.6649 -3.7031
-1.3145 0.6153 1.7025 2.1780 1.8796 1.2307
-0.0048 -1.5766 -2.7943 -4.1086 -4.9891 -5.8087
-6.1418 -6.1106 -5.3218 -3.7072 -1.3123 1.8175
5.1180 8.6493 11.6495 14.1377 15.8686 16.6659
16.4342 15.3083 13.3587 10.5866 7.7606 5.0881
2.7137 0.8261 -0.1971 -0.3726 0.1338 1.3662
2.9459 4.6013 6.1787 7.2517 7.8029 7.8854
7.4206 6.4970 5.0988 3.6887 2.2858 1.1293
0.5564 0.6935 1.3669 2.6135 4.1843 5.7971
7.2498 8.4183 9.2628 9.6904 9.9201 9.9734
10.0203 9.9368 10.2201 10.5516 11.0927 12.1713
13.4523 14.9743 16.3725 17.6207 18.5373 19.0743
19.1887 18.6322 17.3610 15.4344 12.8955 9.8467
6.6082 3.0855 -0.1863 -3.4059 -6.1528 -8.4566
-10.0076 -11.1597 -11.6557 -11.4146 -11.5924 -10.9013
-10.0735 -9.2274 -8.7938 -8.4386 -8.2111 -8.6958
-9.2441 -9.8371 -10.9549 -12.1189 -13.4991 -15.0331
-16.5309 -17.7479 -18.6809 -19.3298 -19.5998 -19.5333
-18.5319 -17.5534 -16.1219 -14.9972 -13.8237 -12.9937
-12.5947 -12.5780 -13.1534 -13.8905 -15.0482 -16.4638
-17.6911 -18.5388 -19.0099 -18.6841 -17.7192 -16.1505
-14.2828 -11.8148 -9.0424 -6.0784 -3.2792 -0.5443
1.6089 3.1161 4.4027 5.5201 6.4154 7.2618
8.2818 9.2672 10.4596 11.7346 13.0984 14.4222
15.6610 16.7078 17.5970 18.0669 18.1888 17.8863
17.1625 16.0602 14.6683 13.0174 11.0451 8.9086
6.5745 4.1393 1.6990 -0.5963 -2.6991 -4.3635
-5.4891 -6.0598 -5.8232 -4.9768 -3.6079 -1.7685
0.3210 2.3516 3.8355 5.0024 5.5476 5.4533
5.0976 4.5363 3.6209 2.9469 2.6907 2.5836
2.6311 2.7997 3.2689 3.5418 3.8412 4.1207
4.6098 5.3560 6.4056 7.7572 9.1935 10.8078
12.3979 14.0211 15.7668 17.3112 18.8562 20.4489
21.8357 23.0155 23.8298 24.4628 24.3973 23.9536
22.9055 21.0633 18.5446 15.5217 12.3727 9.0293
5.8970 3.0751 0.6311 -1.4723 -3.1784 -4.6194
-5.7668 -6.6028 -7.1697 -7.4690 -7.5907 -7.6064
-7.5736 -7.6408 -7.8891 -8.3419 -9.1231 -10.1488
-11.4086 -12.8809 -14.5217 -16.2942 -17.9571 -19.5396
-20.7377 -21.3185 -21.3774 -20.7673 -19.5743 -17.8698
-15.8313 -13.5262 -11.3069 -9.3292 -7.7823 -6.7588
-6.1796 -5.8178 -5.6061 -5.3672 -4.6137 -3.4339
-1.5218 1.0540 4.3933 8.5056 12.8964 17.3553
21.6784 25.4835 28.5852 30.8326 32.0071 31.9110
30.7082 28.3199 25.2185 21.6545 17.6670 13.9127
10.2765 7.1077 4.2751 2.0179 0.3418 -0.9291
-1.5965 -1.8561 -1.8158 -1.5990 -1.1777 -0.7753
-0.6105 -0.6092 -0.8188 -1.3872 -2.1432 -2.9001
-3.6886 -4.4146 -5.1179 -5.6892 -6.0056 -6.1206
-6.0091 -5.8099 -5.4154 -4.9872 -4.3506 -3.7204
-3.2943 -3.0334 -3.1355 -3.4960 -4.1679 -5.0738
-6.0768 -7.0096 -7.7511 -8.1758 -8.1119 -7.5686
-6.6450 -5.2433 -3.6154 -2.0556 -0.5954 0.5003
1.1819 1.2919 0.7798 -0.3319 -2.0317 -4.1256
-6.5678 -9.0065 -11.1008 -12.5544 -13.1922 -13.0353
-12.0786 -10.5310 -8.6706 -6.5687 -4.5261 -2.7435
-1.2820 -0.0559 0.9002 1.5506 1.9546 2.1969
2.2407 2.2467 2.4465 2.8870 3.4615 4.1112
4.8789 5.2756 5.4432 5.3358 4.9123 4.3482
3.7211 3.1404 2.7087 2.4232 2.3627 2.3264
2.4550 2.7931 3.2037 3.8232 4.4156 5.0015
5.4546 5.9493 6.3713 6.6921 6.9763 7.1755
7.2609 7.0938 6.7343 6.1378 5.6033 5.2608
5.3516 5.8873 6.6703 8.0820 9.7285 11.6407
13.5276 15.1114 16.3942 17.1896 17.7420 17.7247
17.4480 16.8304 16.1768 15.5787 15.0537 14.7342
14.4893 14.5741 13.9291 13.1807 12.1505 10.3065
8.2708 6.1245 3.9540 1.5935 -0.5503 -2.6859
-4.8806 -6.9037 -8.5571 -9.9389 -10.8644 -11.2955
-11.2864 -10.8789 -10.2594 -9.4924 -8.7030 -8.0394
-7.6067 -7.3644 -7.4542 -7.8169 -8.4806 -9.3140
-10.2411 -11.1988 -12.1003 -13.1037 -14.1788 -15.1841
-16.0680 -16.5819 -16.7830 -16.4842 -15.7191 -14.3789
-12.5591 -10.4255 -7.8172 -5.1441 -2.3622 0.2822
2.5735 4.4588 5.7363 6.4189 6.4942 5.9849
4.9554 3.5015 2.2038 1.2408 0.6238 0.5192
0.8923 1.6458 2.5271 3.4341 4.2521 4.8641
5.0976 5.0632 4.7355 4.0120 3.0203 2.0661
1.2563 0.6705 0.2539 0.0658 0.1052 0.2879
0.6522 1.0508 1.5824 2.1931 2.8624 3.5201
4.0867 4.4847 4.8489 4.8590 4.6318 4.0051
3.3398 2.6003 1.7564 1.4756 1.5266 2.0560
2.7859 3.8765 5.0894 6.3801 7.5492 8.4728
9.0466 9.2458 9.0718 8.4444 7.5268 6.3385
5.0150 3.4747 1.9347 0.4631 -0.8389 -1.8546
-2.4883 -2.8254 -2.8595 -2.7965 -2.7848 -3.0117
-3.5288 -4.3131 -5.4230 -6.7915 -8.2820 -9.6871
-10.8449 -11.4950 -11.4940 -10.8197 -9.5794 -7.7558
-5.5648 -3.2505 -1.0412 0.8101 2.1411 2.8880
3.1533 2.9346 2.2328 1.1000 -0.4718 -2.4353
-4.7316 -7.2229 -9.6695 -11.9191 -13.7040 -14.9342
-15.4863 -15.0769 -14.0140 -12.2963 -10.0684 -7.5853
-4.9938 -2.6190 -0.5153 1.0943 2.2880 3.1290
3.5762 3.6424 3.5157 3.1120 2.7581 2.4348
2.0680 1.8745 1.6341 1.4034 1.0861 0.8230
0.3906 -0.0719 -0.7350 -1.4594 -2.0487 -2.5321
-2.7044 -2.5800 -2.0377 -1.0765 0.3796 2.0939
4.0611 6.1384 8.0650 9.7011 11.0634 11.8616
12.0551 11.8357 11.1384 9.9069 8.4485 6.8061
5.0705 3.4634 1.9965 0.8413 -0.0704 -0.5122
-0.6127 -0.4914 -0.2468 -0.0461 0.0396 -0.2068
-0.6565 -1.2606 -2.1309 -2.8185 -3.5452 -4.4552
-5.5080 -6.6381 -7.7813 -8.9725 -9.7524 -10.3917
-10.6457 -10.4018 -9.6982 -8.7295 -7.6921 -6.6551
-5.8030 -5.0792 -4.6610 -4.5299 -4.7587 -5.0886
-5.5206 -5.9372 -6.3797 -6.7074 -6.8501 -6.7200
-6.2549 -5.6401 -4.7023 -3.5839 -2.0480 -0.5301
1.1860 2.9661 4.4708 5.6251 6.2266 6.3161
5.7940 4.9589 3.8267 2.6894 1.5976 0.7240
0.0383 -0.5084 -1.1556 -1.8479 -2.6991 -3.8814
-5.2720 -6.9579 -8.7254 -10.7664 -12.6915 -14.2961
-15.4302 -16.0664 -16.0966 -15.4897 -14.3102 -12.7082
-10.8247 -8.7118 -6.5801 -4.3232 -2.2245 -0.2960
1.4000 2.9034 4.1437 5.2381 6.1264 6.9479
7.5596 8.0033 8.4845 8.6266 8.7328 8.6464
8.5232 8.3077 8.1823 8.1511 8.2409 8.4747
8.7807 9.2247 9.5962 10.0125 10.3418 10.7243
11.1667 11.7450 12.4115 13.1980 14.0264 14.8791
15.5548 15.7672 15.5021 14.6428 13.1047 10.9827
8.2910 5.2113 1.8982 -1.4437 -4.4855 -7.2768
-9.4959 -11.3125 -12.6256 -13.4843 -13.8089 -13.7733
-13.4975 -13.0264 -12.4756 -11.8448 -11.3664 -10.7116
-10.0208 -9.3894 -8.8193 -8.2987 -7.9127 -7.5261
-6.9031 -6.0822 -5.0779 -3.8187 -2.3036 -0.7898
0.7962 2.3233 3.7341 5.0081 5.9597 6.7784
7.3248 7.8066 8.0543 8.0521 7.8763 7.4244
6.5440 5.3503 3.6121 1.4696 -0.9458 -3.7903
-6.2612 -8.6098 -10.5115 -11.9604 -12.9209 -13.5814
-13.9220 -13.6813 -13.1229 -12.2929 -11.3122 -10.1349
-8.9696 -7.8374 -6.8073 -5.9243 -5.2065 -4.4593
-3.8313 -3.3391 -2.9849 -2.8226 -2.7183 -2.8560
-2.8705 -2.8173 -2.8087 -2.7649 -2.6584 -2.3887
-2.0739 -1.5193 -0.8462 0.0169 1.0042 2.1370
3.2907 4.2912 5.1767 5.7741 6.0852 5.9994
5.6698 5.1266 4.4831 3.8447 3.3811 3.0493
2.8145 2.8357 2.9838 3.2919 3.6713 4.2282
4.7673 5.3125 5.8932 6.3171 6.5922 6.7330
6.8408 6.7954 6.7069 6.5704 6.5109 6.3678
6.1554 5.9566 5.7738 5.6276 5.5255 5.5293
5.5491 5.7347 6.0265 6.4803 7.1260 7.9191
8.6959 9.3882 9.8111 9.9447 9.5537 8.6776
7.1581 5.2230 3.2330 0.7534 -1.6485 -4.1007
-6.6295 -9.0802 -11.3535 -13.1723 -14.5378 -15.4431
-15.8953 -15.9006 -15.5064 -14.7057 -13.6009 -12.2179
-10.6807 -9.0244 -7.3206 -5.6880 -4.1108 -2.7624
-1.7124 -1.0365 -0.7614 -0.8654 -1.2694 -1.8836
-2.5664 -3.1280 -3.5231 -3.5675 -3.2880 -2.7161
-1.9337 -0.9943 -0.1980 0.5684 1.2112 1.7624
2.1112 2.3277 2.3526 2.2227 2.1351 2.1055
2.1232 2.1556 2.6154 2.6973 3.2485 4.1862
5.1556 6.2979 7.6132 9.0731 10.2791 11.4289
12.4341 13.0738 13.3436 13.7088 13.8055 13.6496
13.3751 13.0527 12.5432 11.9580 11.4942 10.9692
10.3849 9.8407 9.3164 8.6389 7.6916 6.6319
5.3531 3.9606 2.7295 1.5607 0.6213 -0.1441
-0.5052 -0.4766 -0.1495 0.5492 1.6209 2.9894
4.3627 5.6686 6.6936 7.3897 7.6607 7.4178
6.6606 5.4395 3.9808 2.3393 0.7496 -0.6669
-1.8813 -3.0284 -3.9785 -4.7316 -5.4138 -6.0778
-6.6311 -7.1173 -7.5573 -8.0999 -8.5981 -8.7349
-9.1426 -9.4792 -9.7328 -9.9273 -10.0892 -10.1188
-9.6285 -8.9712 -8.1336 -7.1536 -6.1915 -5.3442
-4.7426 -4.3790 -4.3950 -4.7949 -5.4611 -6.3611
-7.4051 -8.5404 -9.5917 -10.4847 -11.1036 -11.4698
-11.5372 -11.3135 -10.8754 -10.1604 -9.1193 -7.9820
-6.7364 -5.3558 -3.9217 -2.6099 -1.4758 -0.5786
0.1159 0.6601 1.0341 1.1173 0.8892 0.4515
-0.2516 -0.7740 -1.6352 -2.2059 -2.3064 -2.3096
-1.9516 -1.3400 -0.5437 0.2318 0.9484 1.5308
1.8342 1.8468 1.6990 1.2345 0.5016 -0.3685
-1.2902 -2.2740 -3.1292 -3.7727 -4.0963 -4.1817
-4.0377 -3.7358 -3.3621 -3.1828 -3.2001 -3.3567
-3.8965 -4.8356 -6.1131 -7.5850 -9.2378 -11.0034
-12.5260 -13.8284 -14.8544 -15.2045 -15.0968 -14.4930
-13.5562 -12.2264 -10.6542 -9.0393 -7.4192 -5.9123
-4.7291 -3.8899 -3.2924 -3.0485 -3.1125 -3.3813
-3.6737 -4.0780 -4.4574 -4.6843 -4.8794 -4.9112
-4.7196 -4.4704 -4.0330 -3.5269 -2.9118 -2.2500
-1.5691 -0.8257 -0.0745 0.7789 1.6496 2.5735
3.5100 4.5077 5.4798 6.5046 7.5177 8.5614
9.5855 10.4817 11.1828 11.4923 11.5055 11.0750
10.4495 9.5007 8.7299 7.7389 6.6026 5.7407
4.8631 4.3366 3.6688 3.2986 2.8769 2.1941
1.3058 0.2407 -0.8843 -2.0862 -3.1513 -4.1070
-4.8945 -5.5273 -5.8878 -6.1168 -6.2101 -6.1556
-5.9158 -5.5591 -5.0804 -4.4461 -3.7128 -2.9162
-2.0036 -1.1128 -0.2137 0.6784 1.4564 2.0649
2.5710 3.0380 3.4054 3.8097 4.2127 4.6258
5.0995 5.7407 6.4838 7.3056 8.1917 9.0142
9.7427 10.3808 10.8595 11.2484 11.5121 11.6807
11.6574 11.4756 11.1869 10.6947 10.1240 9.5480
9.0952 8.7819 8.6275 8.6168 8.7879 8.9259
9.0123 8.9931 8.8220 8.5667 8.2762 7.9412
7.6166 7.3696 7.2473 7.2930 7.4887 7.7506
8.0219 8.2878 8.5075 8.7195 8.8799 9.0599
9.0170 8.9436 8.5724 8.0260 7.3258 6.4349
5.4975 4.5029 3.4709 2.2697 1.0165 -0.3193
-1.6482 -3.0577 -4.3308 -5.6571 -6.5032 -7.0978
-7.4520 -7.3915 -7.0581 -6.4644 -5.7771 -4.7744
-3.8014 -2.7407 -1.6119 -0.3782 0.6828 1.6461
2.3781 2.7755 2.7887 2.4969 2.0261 1.3370
0.6421 -0.0619 -0.5846 -1.0920 -1.4279 -1.6771
-1.8917 -2.0669 -2.1460 -2.0956 -1.9292 -1.5593
-1.0252 -0.3234 0.4801 1.4340 2.5016 3.5784
4.5761 5.5154 6.3511 7.0286 7.5583 7.9198
8.0962 8.0899 7.9544 7.6853 7.3173 6.9016
6.3773 5.6686 4.7046 3.5510 2.2228 0.9131
-0.3628 -1.4493 -2.3260 -2.9871 -3.3350 -3.5660
-3.6898 -3.8285 -3.9539 -4.0932 -4.3317 -4.6556
-5.0716 -5.6209 -6.2776 -7.0067 -7.7227 -8.2956
-8.7106 -8.9337 -8.9261 -8.7084 -8.2477 -7.7025
-6.9314 -6.1014 -5.2975 -4.4332 -3.6747 -2.9792
-2.3836 -1.8464 -1.5057 -1.3781 -1.4096 -1.5155
-1.7509 -2.0219 -2.3666 -2.8708 -3.4642 -4.0408
-4.5457 -5.0700 -5.5874 -6.0730 -6.6050 -7.2065
-7.7911 -8.4380 -9.1231 -9.7678 -10.2572 -10.5726
-10.6829 -10.5928 -10.3142 -9.8488 -9.1915 -8.3696
-7.4236 -6.3318 -5.1687 -3.9621 -2.7662 -1.5776
-0.3404 0.9837 2.3620 3.7259 5.0191 6.1863
7.1748 7.9519 8.5349 8.9137 9.0898 9.0548
8.7186 8.0449 7.0983 5.9916 4.8515 3.7271
2.7707 2.0586 1.6319 1.4334 1.4346 1.6152
1.9149 2.3003 2.7481 3.2481 3.7920 4.4330
5.1404 5.8829 6.6259 7.4093 8.1397 8.8226
9.3766 9.8622 10.1685 10.3396 10.3169 10.1111
9.6614 8.9404 8.0379 6.9710 5.8759 4.7532
3.6572 2.5634 1.6121 0.7228 -0.0962 -0.9814
-1.6274 -2.5800 -3.4903 -4.3254 -5.1649 -5.9694
-6.8281 -7.5579 -8.3154 -8.9337 -9.5567 -9.9890
-10.4560 -10.5562 -10.5896 -10.3347 -10.1765 -9.6893
-9.3197 -9.2529 -8.7642 -8.4626 -7.9152 -7.3376
-6.6223 -5.8597 -5.0209 -4.1496 -3.2959 -2.5604
-1.8867 -1.3847 -1.1355 -1.1159 -1.4065 -2.0266
-3.0867 -4.4555 -6.1342 -8.0258 -10.0375 -12.0738
-14.1360 -16.1493 -18.0614 -19.8330 -21.4284 -22.8461
-24.0319 -25.0151 -25.7137 -26.1023 -26.1227 -25.7544
-25.0299 -24.0291 -22.8808 -21.6979 -20.5978 -19.7249
-19.1388 -18.8202 -18.7361 -18.7899 -18.9428 -19.0225
-18.9614 -18.5807 -17.9426 -16.8788 -15.5751 -13.7503
-11.6711 -9.4914 -6.9696 -4.6374 -2.3830 -0.3640
1.4857 2.9724 4.1031 4.9151 5.4842 5.7984
6.0770 6.3801 6.7192 7.2464 7.9611 8.9203
9.9702 11.2417 12.5407 13.9300 15.4659 17.0276
18.5361 19.9229 21.0895 21.9195 22.2800 22.2504
21.7818 20.9241 19.7068 18.1737 16.4248 14.5149
12.7433 11.0461 9.8171 8.9042 8.5100 8.3887
8.3493 8.6338 8.7693 8.9899 9.0173 8.9442
8.6909 8.2588 7.7465 7.1408 6.5812 6.0429
5.6733 5.4426 5.4329 5.5747 5.8104 6.1346
6.4176 6.5780 6.5966 6.5610 6.4217 6.2752
6.2090 6.2815 6.5329 6.9278 7.5514 8.3335
9.3139 10.4124 11.6316 12.6903 13.5859 13.9798
14.0164 13.7617 13.0215 12.0103 10.8192 9.5956
8.1974 6.7677 5.3468 4.1916 3.1795 2.4178
1.9297 1.6949 1.6975 1.7983 2.0873 2.4897
2.8473 3.1902 3.5047 3.6685 3.6414 3.4627
3.1917 2.7632 2.2836 1.9089 1.4879 1.1123
0.9784 0.8829 0.9815 1.2005 1.5021 1.8115
2.0608 2.3312 2.6699 2.9598 3.2277 3.5236
3.7596 3.8450 3.7750 3.6304 3.4769 3.2740
3.0326 2.7881 2.5335 2.1960 1.7955 1.4731
1.0600 0.7612 0.4070 0.1780 -0.1148 -0.4195
-0.7715 -1.2391 -1.5769 -2.0660 -2.5377 -3.0221
-3.4324 -3.8250 -4.2050 -4.5614 -4.9210 -5.3335
-5.8102 -6.3548 -6.9667 -7.6121 -8.3063 -9.0500
-9.6893 -10.2301 -10.6596 -10.8802 -10.8052 -10.4689
-10.0212 -9.4360 -8.8407 -8.2524 -7.7561 -7.3165
-6.9670 -6.6922 -6.6169 -6.6242 -6.6015 -6.5731
-6.4008 -6.1102 -5.6640 -5.1608 -4.5718 -3.9044
-3.1935 -2.5349 -1.9195 -1.3888 -0.9574 -0.7227
-0.6637 -0.8676 -1.3217 -1.9349 -2.7010 -3.5669
-4.4243 -5.1548 -5.7113 -5.9845 -5.9681 -5.5427
-4.8624 -3.8184 -2.6294 -1.3270 -0.0010 1.3436
2.5180 3.5923 4.4176 5.1067 5.6074 5.7798
6.1397 6.1586 6.2115 6.2786 6.4561 6.6391
7.0003 7.5798 8.1757 8.8365 9.5118 10.1086
10.4206 10.6235 10.4908 10.1971 9.7096 9.1566
8.4479 7.7663 7.2448 6.8169 6.6524 6.5966
6.7661 6.9902 7.3472 7.7676 8.1192 8.4760
8.7810 9.1699 9.5556 10.1026 10.8012 11.6076
12.4890 13.3641 14.3113 15.2573 16.2077 17.0907
17.7842 18.2213 18.3496 18.1491 17.5939 16.7280
15.6594 14.4440 13.1492 11.8543 10.6478 9.5373
8.5242 7.5839 6.7286 5.9191 5.1943 4.5490
3.8699 3.1577 2.3668 1.4406 0.3951 -0.7457
-1.9551 -3.1821 -4.3843 -5.5818 -6.7206 -7.7391
-8.6056 -9.3071 -9.8378 -10.1803 -10.3404 -10.2997
-10.1463 -9.9272 -9.7650 -9.7281 -9.8986 -10.2449
-10.8020 -11.5003 -12.3524 -13.3359 -14.3632 -15.3810
-16.2709 -17.2137 -17.9842 -18.5259 -18.8649 -19.0099
-19.0067 -18.7770 -18.3816 -17.7948 -16.9569 -15.9920
-14.8774 -13.7020 -12.5881 -11.5662 -10.7686 -10.1570
-9.7505 -9.5236 -9.4558 -9.5154 -9.6509 -9.7542
-9.8236 -9.8113 -9.6742 -9.4732 -9.1968 -8.8064
-8.3419 -7.7895 -7.1388 -6.3900 -5.5767 -4.7439
-3.8143 -2.9578 -2.1098 -1.2855 -0.5090 0.1947
0.7865 1.2752 1.6155 1.7844 1.7599 1.5768
1.2185 0.7603 0.2155 -0.3344 -0.8626 -1.3233
-1.6828 -1.9125 -2.0887 -2.1416 -2.0540 -1.8429
-1.5631 -1.2543 -0.8295 -0.3505 0.1884 0.7370
1.2941 1.8128 2.3066 2.7871 3.2945 3.8708
4.5376 5.3037 6.1384 6.9703 7.7398 8.3786
8.8324 9.0863 9.1437 8.9877 8.6184 8.0789
7.4191 6.6354 5.8016 5.0270 4.2994 3.6840
3.2192 2.9450 2.7572 2.6630 2.5990 2.5199
2.4241 2.2877 2.1125 1.9401 1.7737 1.6029
1.4186 1.1706 0.8659 0.5233 0.1950 -0.1463
-0.4706 -0.7696 -1.0743 -1.4244 -1.8054 -2.2655
-2.7955 -3.4286 -4.1042 -4.8646 -5.6123 -6.3258
-6.8779 -7.2585 -7.3571 -7.1413 -6.6034 -5.7160
-4.5009 -3.0047 -1.3160 0.5489 2.2480 4.0917
5.5016 6.6215 7.3948 7.7405 7.7859 7.4449
6.9202 6.1091 5.1792 4.2115 3.2866 2.4096
1.7526 1.1996 0.9308 0.6623 0.5101 0.4030
0.3005 0.2983 0.3191 0.4036 0.4316 0.5180
0.5753 0.6229 0.6443 0.6342 0.5633 0.4865
0.3866 0.2687 0.1732 0.1058 0.1342 0.2303
0.3305 0.4480 0.5577 0.6834 0.8731 1.1287
1.3968 1.6600 1.8913 2.0715 2.1553 2.1821
2.1512 2.0784 2.0104 1.9685 1.9020 1.7958
1.5765 1.3133 0.8841 0.2665 -0.5002 -1.4128
-2.4359 -3.5732 -4.7139 -6.1083 -7.2651 -8.4090
-9.5293 -10.4236 -11.0283 -11.3204 -11.4540 -11.2460
-10.8360 -10.2149 -9.4577 -8.5647 -7.7665 -7.0486
-6.4253 -5.9820 -5.6684 -5.4529 -5.3215 -5.2351
-5.1472 -5.0385 -4.8913 -4.6704 -4.4111 -4.1073
-3.7424 -3.3819 -3.0252 -2.6757 -2.3509 -2.1073
-1.9359 -1.8949 -1.9674 -2.1224 -2.3203 -2.5544
-2.7202 -2.8049 -2.7498 -2.5557 -2.2009 -1.7317
-1.2019 -0.6524 -0.1372 0.2838 0.6210 0.9708
1.1844 1.4586 1.7384 2.0580 2.3885 2.8240
3.2945 3.6988 4.2357 4.8341 5.4729 6.1075
6.8102 7.4909 8.1025 8.6827 9.1859 9.5017
9.6381 9.6098 9.3435 8.8289 8.1602 7.3891
6.5916 5.8576 5.2495 4.7683 4.4295 4.1755
4.0089 3.9049 3.8094 3.6559 3.4766 3.2661
2.9126 2.5719 2.1758 1.6905 1.1485 0.6273
0.1940 -0.0672 -0.2008 -0.1548 0.0267 0.2835
0.6220 0.9475 1.2840 1.5566 1.7350 1.7910
1.6927 1.4602 1.1129 0.7077 0.2608 -0.2254
-0.6593 -1.0327 -1.3333 -1.5665 -1.6960 -1.7827
-1.7997 -1.8152 -1.8492 -1.9223 -2.0906 -2.3357
-2.7095 -3.1544 -3.6895 -4.2271 -4.7458 -5.1756
-5.4649 -5.5726 -5.4160 -4.9619 -4.2287 -3.3019
-2.2311 -1.1178 -0.0537 0.8863 1.6398 2.2042
2.5196 2.6605 2.6523 2.4686 2.2209 1.9039
1.4933 1.0575 0.6929 0.3551 0.0897 -0.0751
-0.1633 -0.1951 -0.1239 0.0503 0.3081 0.6447
1.0184 1.4353 1.8853 2.3498 2.7799 3.2270
3.6471 4.0873 4.5203 4.9438 5.3560 5.7647
6.1832 6.5572 6.9076 7.1830 7.3519 7.3983
7.3302 7.0995 6.7163 6.2125 5.6024 4.9028
4.1633 3.4479 2.7868 2.1601 1.6174 1.1980
0.8750 0.6475 0.5403 0.5492 0.6680 0.8703
1.0792 1.3540 1.6420 2.0242 2.4897 3.0131
3.6783 4.4456 5.3182 6.2660 7.2659 8.2689
9.1884 9.9523 10.6241 11.0057 11.1724 11.1551
10.8154 10.2293 9.4087 8.4211 7.2754 6.0691
4.8628 3.6855 2.5984 1.7135 1.0023 0.5249
0.3194 0.3670 0.6516 1.1630 1.8320 2.5196
3.1747 3.7199 4.0763 4.1872 4.0703 3.6710
3.0159 2.1415 1.0893 -0.0899 -1.3050 -2.5472
-3.7550 -4.9147 -5.9968 -6.9648 -7.8733 -8.6731
-9.3707 -9.8834 -10.2052 -10.3388 -10.2553 -9.8948
-9.2951 -8.4572 -7.3679 -6.0711 -4.6824 -3.2426
-1.8262 -0.5799 0.4890 1.3398 1.9562 2.2795
2.3948 2.2382 1.9262 1.5465 1.0704 0.5775
0.1433 -0.1951 -0.4706 -0.6719 -0.8635 -0.9905
-1.1301 -1.2533 -1.2968 -1.2454 -1.1462 -1.0248
-0.8985 -0.8329 -0.8566 -0.9817 -1.1487 -1.3617
-1.5621 -1.7736 -1.9242 -1.9860 -1.9418 -1.8063
-1.6182 -1.3951 -1.1723 -0.9495 -0.7520 -0.5837
-0.4447 -0.2900 -0.1797 -0.0584 0.0484 0.1499
0.2366 0.3478 0.4282 0.5473 0.6951 0.8687
1.1930 1.4737 1.8207 2.2256 2.6734 3.1372
3.5784 3.9679 4.2647 4.5014 4.6939 4.8064
4.9284 5.0670 5.1997 5.3519 5.5205 5.6891
5.8542 6.0272 6.1554 6.2506 6.2790 6.2525
6.1233 5.9096 5.6081 5.2233 4.7235 4.1976
3.6064 3.0493 2.4878 1.9855 1.5802 1.1558
0.8630 0.6551 0.5123 0.3645 0.2489 0.1194
-0.0347 -0.1844 -0.3016 -0.3993 -0.4633 -0.4677
-0.3855 -0.2049 0.0576 0.3661 0.7143 1.0181
1.3089 1.5607 1.7958 1.9789 2.1257 2.2221
2.2700 2.3034 2.3141 2.4084 2.4808 2.7934
3.0692 3.2939 3.5069 3.6430 3.6367 3.4300
3.1120 2.6075 1.9912 1.2613 0.4121 -0.5849
-1.6129 -2.6666 -3.6728 -4.5803 -5.3168 -5.8877
-6.2583 -6.4729 -6.5703 -6.5498 -6.4411 -6.2489
-5.9996 -5.6813 -5.3514 -4.9972 -4.6421 -4.2958
-3.9728 -3.6970 -3.4736 -3.3173 -3.2234 -3.2430
-3.4749 -3.9154 -4.5337 -5.2663 -6.0387 -6.7981
-7.4791 -8.0161 -8.4068 -8.6605 -8.7339 -8.6135
-8.3419 -7.9537 -7.4826 -6.9541 -6.4316 -5.9467
-5.4863 -5.0587 -4.5913 -4.0437 -3.4254 -2.6969
-1.8965 -1.0885 -0.3253 0.3324 0.8501 1.1741
1.3096 1.2106 0.8731 0.3276 -0.3221 -1.0141
-1.7335 -2.4016 -2.9653 -3.3895 -3.6848 -3.8363
-3.8329 -3.7412 -3.5716 -3.3895 -3.2392 -3.1144
-3.0933 -3.1727 -3.3993 -3.6911 -4.0024 -4.2810
-4.4669 -4.5542 -4.5746 -4.5082 -4.4420 -4.3708
-4.3812 -4.5702 -4.8157 -5.1989 -5.6338 -6.1477
-6.6295 -7.0307 -7.3307 -7.4372 -7.3445 -7.0256
-6.5218 -5.8613 -5.0665 -4.2015 -3.3189 -2.4842
-1.7313 -1.0794 -0.5389 -0.1126 0.1934 0.4288
0.6122 0.7650 0.9034 1.0105 1.0593 1.0679
0.9856 0.8353 0.6544 0.4524 0.2580 0.0976
-0.0609 -0.1891 -0.3426 -0.4876 -0.6448 -0.7913
-0.9407 -1.1046 -1.3560 -1.6633 -2.0912 -2.6458
-3.2196 -3.9901 -4.6374 -5.3149 -5.9416 -6.4843
-6.9172 -7.2664 -7.5840 -7.7532 -7.8982 -7.9587
-7.9429 -7.8043 -7.6231 -7.3039 -6.8744 -6.3711
-5.7891 -5.1381 -4.4603 -3.7796 -3.1059 -2.4630
-1.8243 -1.1975 -0.5641 0.0450 0.6191 1.1255
1.5295 1.8005 1.9411 1.9700 1.9010 1.7923
1.6915 1.6376 1.6502 1.7094 1.8033 1.9143
1.9628 1.9089 1.7346 1.4142 0.9809 0.4461
-0.1157 -0.6804 -1.1982 -1.5999 -1.8845 -2.0389
-2.0947 -2.0663 -2.0074 -1.9330 -1.8426 -1.7537
-1.6283 -1.5026 -1.3510 -1.1506 -0.9092 -0.6458
-0.3344 0.0147 0.3866 0.7672 1.1117 1.4239
1.6786 1.9203 2.1393 2.3665 2.5656 2.7824
2.9939 3.2028 3.4561 3.7719 4.1541 4.6104
5.1553 5.6371 6.1460 6.6190 7.0321 7.4115
7.7247 8.0008 8.2204 8.3937 8.5343 8.6297
8.6802 8.6959 8.6509 8.5825 8.4823 8.3726
8.2724 8.1867 8.1164 8.0518 8.0146 7.9756
7.9437 7.9050 7.8552 7.7859 7.6683 7.5212
7.3393 7.1430 6.9306 6.6776 6.3776 6.0149
5.6059 5.1600 4.6952 4.2294 3.7558 3.2775
2.7515 2.1692 1.4977 0.7433 -0.1031 -0.9804
-1.8281 -2.6178 -3.3019 -3.8546 -4.2624 -4.5545
-4.7268 -4.7864 -4.7347 -4.5784 -4.3730 -4.1376
-3.8530 -3.6696 -3.5893 -3.6397 -3.8370 -4.1625
-4.5598 -4.9846 -5.4009 -5.7693 -6.1323 -6.4319
-6.6859 -6.8841 -7.0688 -7.2276 -7.3581 -7.5021
-7.6565 -7.7775 -7.8364 -7.8043 -7.6278 -7.3086
-6.8236 -6.2259 -5.5295 -4.8078 -4.1477 -3.5946
-3.1765 -2.8765 -2.7325 -2.7148 -2.7737 -2.8916
-3.0429 -3.1393 -3.1686 -3.0930 -2.8828 -2.5084
-2.0326 -1.4893 -0.9105 -0.3124 0.2457 0.7745
1.2576 1.6508 1.9990 2.2505 2.4875 2.6857
2.9028 3.1316 3.5110 3.8809 4.4384 5.1184
5.7524 6.4920 7.1752 7.9125 8.5850 9.2921
9.9775 10.6323 11.2988 11.9461 12.5296 13.0956
13.6379 14.0750 14.4708 14.7364 14.8839 14.8464
14.6498 14.2861 13.7441 13.1177 12.4124 11.7050
10.9752 10.2693 9.6120 8.9764 8.3726 7.8004
7.2363 6.6436 6.0496 5.4322 4.7708 4.0590
3.3147 2.5029 1.6874 0.8829 0.1134 -0.5834
-1.2117 -1.7515 -2.1807 -2.4826 -2.6559 -2.6571
-2.5462 -2.3357 -2.0266 -1.6538 -1.2867 -0.9363
-0.5834 -0.2424 0.0951 0.4294 0.7713 1.0928
1.3540 1.5311 1.6114 1.5560 1.3562 1.0386
0.6308 0.1071 -0.5229 -1.2303 -2.0389 -2.8730
-3.6718 -4.4533 -5.1182 -5.5818 -5.9473 -6.1698
-6.2218 -6.1260 -5.9230 -5.6672 -5.3133 -4.9648
-4.6247 -4.2876 -4.0163 -3.7320 -3.4585 -3.2401
-2.9783 -2.6909 -2.4467 -2.2431 -2.0874 -1.9938
-1.9834 -2.0086 -2.0578 -2.1662 -2.3263 -2.5062
-2.7262 -2.9505 -3.1626 -3.4024 -3.6195 -3.8505
-4.1083 -4.3922 -4.6474 -4.8655 -5.0606 -5.2320
-5.3895 -5.5424 -5.7147 -5.8843 -6.0696 -6.2350
-6.4335 -6.6771 -6.9475 -7.2727 -7.6417 -8.0350
-8.4342 -8.8398 -9.2415 -9.6231 -9.9695 -10.2572
-10.5181 -10.7525 -10.9555 -11.1480 -11.3427 -11.5202
-11.6598 -11.8044 -11.9572 -12.0975 -12.2648 -12.4617
-12.6328 -12.8017 -12.9404 -13.0715 -13.1796 -13.2968
-13.4326 -13.5202 -13.5798 -13.5839 -13.5246 -13.4131
-13.2272 -12.9404 -12.5478 -12.0574 -11.3897 -10.5906
-9.7092 -8.7247 -7.6817 -6.6573 -5.7132 -4.8630
-4.1896 -3.6438 -3.2511 -3.0022 -2.8806 -2.8866
-2.9155 -2.8925 -2.7895 -2.5844 -2.2532 -1.7981
-1.2511 -0.6533 -0.0105 0.6692 1.3502 2.0444
2.7931 3.5705 4.3823 5.2435 6.1378 6.9691
7.6869 8.2819 8.7214 9.0473 9.2376 9.2918
9.2688 9.1585 9.0132 8.8677 8.7508 8.6376
8.5217 8.4054 8.2793 8.0912 7.8851 7.6957
7.5275 7.4014 7.3198 7.2599 7.2064 7.1421
7.0564 6.9325 6.7954 6.6332 6.4387 6.2522
6.0083 5.8375 5.5693 5.3613 5.1244 4.9117
4.6728 4.4144 4.2121 3.8387 3.5794 3.3071
3.0812 2.9148 2.7626 2.6983 2.6009 2.4913
2.4292 2.4005 2.3898 2.3655 2.4311 2.4903
2.5902 2.6630 2.8083 2.7881 2.7011 2.7040
2.5007 2.3044 2.0044 1.6691 1.3033 0.9459
0.6412 0.3951 0.2391 0.2284 0.3289 0.5413
0.8359 1.1961 1.6096 2.0406 2.4755 2.8656
3.2494 3.6065 3.9405 4.2534 4.5398 4.7856
5.0087 5.1937 5.3418 5.4559 5.4991 5.4893
5.4628 5.3702 5.2542 5.1241 4.9964 4.8688
4.7513 4.6564 4.5739 4.4670 4.3552 4.2086
4.0133 3.7788 3.4933 3.1833 2.8432 2.5061
2.1837 1.8935 1.6656 1.4857 1.3389 1.2387
1.1507 1.1186 1.1028 1.1195 1.1366 1.1759
1.2097 1.2721 1.3660 1.5153 1.7063 1.9713
2.3075 2.6756 3.0613 3.4571 3.8570 4.2052
4.5950 4.8679 5.1357 5.3182 5.4842 5.4644
5.2930 5.0380 4.6262 4.1362 3.5466 2.9425
2.2940 1.6697 1.0732 0.4925 -0.1053 -0.6807
-1.2864 -1.8010 -2.3360 -2.7986 -3.1585 -3.3920
-3.4367 -3.3047 -2.9874 -2.5383 -1.9500 -1.3144
-0.6631 -0.0420 0.5571 1.0858 1.5528 1.9527
2.2697 2.4512 2.4922 2.3551 2.0655 1.6464
1.1700 0.6689 0.1988 -0.1838 -0.4803 -0.6593
-0.7425 -0.7201 -0.6284 -0.4917 -0.3168 -0.1387
0.0248 0.1739 0.3390 0.4855 0.5996 0.7121
0.7713 0.8243 0.8678 0.9220 0.9954 1.0849
1.1649 1.2361 1.3064 1.3458 1.3761 1.4016
1.4350 1.4860 1.5717 1.6823 1.8323 2.0142
2.2243 2.4487 2.6973 2.9680 3.2646 3.5935
3.9521 4.3158 4.6883 5.0847 5.4830 5.8933
6.2988 6.6858 7.0019 7.2221 7.3201 7.2760
7.0595 6.7148 6.2601 5.7146 5.1316 4.5587
4.0505 3.6228 3.3169 3.1108 3.0446 3.0685
3.2214 3.4697 3.7706 4.1245 4.4607 4.7907
5.0878 5.3305 5.5120 5.6267 5.6333 5.5419
5.3500 5.0951 4.7941 4.4825 4.1752 3.9128
3.7363 3.6679 3.7054 3.8277 4.0498 4.3306
4.6460 4.9649 5.2772 5.5429 5.7467 5.8980
6.0108 6.0647 6.0877 6.0694 6.0086 5.9018
5.7628 5.5778 5.3387 5.0815 4.7714 4.4289
4.0230 3.5973 3.1161 2.6012 2.0337 1.4457
0.8571 0.2574 -0.2509 -0.7324 -1.1247 -1.4357
-1.7039 -1.9144 -2.0880 -2.2680 -2.4841 -2.7564
-3.0898 -3.4657 -3.8741 -4.2551 -4.6128 -4.9339
-5.2080 -5.4409 -5.6189 -5.7273 -5.7878 -5.7715
-5.6842 -5.5430 -5.3539 -5.1368 -4.8913 -4.6509
-4.4120 -4.2009 -4.0203 -3.9022 -3.8092 -3.7931
-3.8612 -3.9995 -4.2176 -4.4546 -4.7212 -4.9707
-5.2156 -5.4787 -5.7519 -6.0065 -6.2668 -6.4792
-6.6333 -6.7310 -6.7858 -6.8280 -6.8451 -6.9049
-7.0146 -7.2065 -7.4876 -7.8591 -8.2933 -8.7452
-9.2170 -9.6619 -10.1169 -10.5704 -10.9470 -11.2451
-11.4716 -11.6210 -11.6979 -11.7470 -11.7757 -11.7984
-11.8409 -11.9229 -12.0250 -12.1419 -12.2717 -12.3921
-12.5024 -12.5812 -12.6111 -12.5563 -12.4000 -12.1236
-11.7149 -11.1905 -10.5578 -9.8522 -9.0736 -8.2511
-7.4047 -6.5378 -5.6939 -4.8863 -4.1549 -3.4966
-2.9313 -2.4589 -2.0657 -1.7474 -1.4859 -1.2801
-1.1131 -0.9728 -0.8392 -0.7066 -0.5629 -0.4113
-0.2326 -0.0505 0.1165 0.2753 0.4241 0.5596
0.6774 0.7950 0.9018 1.0231 1.1438 1.2812
1.4539 1.6549 1.8963 2.1846 2.4739 2.7588
3.0396 3.2639 3.4136 3.4829 3.4782 3.3843
3.2661 3.1142 2.9359 2.7515 2.5826 2.4355
2.3318 2.2997 2.3318 2.4588 2.6614 2.9428
3.2655 3.6087 3.9235 4.1787 4.3634 4.4702
4.5039 4.4847 4.4406 4.3820 4.3281 4.2792
4.2339 4.2046 4.1459 4.0807 3.9884 3.8529
3.6868 3.4848 3.2680 3.0465 2.8391 2.6365
2.4988 2.3876 2.3082 2.2505 2.1865 2.0841
1.9010 1.6200 1.2465 0.7865 0.2564 -0.3114
-0.9161 -1.5196 -2.1129 -2.6761 -3.1916 -3.6778
-4.0953 -4.4458 -4.7284 -4.9755 -5.1633 -5.2837
-5.4031 -5.4856 -5.5477 -5.5770 -5.5833 -5.5446
-5.5033 -5.4497 -5.4343 -5.4459 -5.4967 -5.5638
-5.6325 -5.7198 -5.7793 -5.8131 -5.7913 -5.7201
-5.5808 -5.4069 -5.1992 -4.9651 -4.7155 -4.4606
-4.1820 -3.9227 -3.6435 -3.4046 -3.1383 -2.8522
-2.5324 -2.1407 -1.6796 -1.1613 -0.6142 0.0094
0.6087 1.2563 1.8342 2.3668 2.8653 3.2299
3.5006 3.7076 3.8021 3.7735 3.6912 3.4823
3.1996 2.8716 2.5070 2.1431 1.7955 1.4596
1.1690 0.9027 0.6380 0.3658 0.0850 -0.1895
-0.5024 -0.7888 -1.0494 -1.2653 -1.4345 -1.5057
-1.5382 -1.4682 -1.3179 -1.0762 -0.7778 -0.4365
-0.0369 0.3661 0.7843 1.2087 1.6281 1.9622
2.3419 2.6056 2.8615 3.0219 3.1811 3.2693
3.2917 3.2954 3.1918 3.0856 2.8713 2.6715
2.4226 2.1856 1.9344 1.7425 1.4942 1.2765
1.0789 0.8426 0.6154 0.3522 0.1332 -0.0574
-0.1567 -0.1806 -0.1047 0.0311 0.2511 0.5098
0.7912 1.0773 1.3178 1.4942 1.5554 1.5134
1.3531 1.1249 0.8416 0.5712 0.3135 0.1238
-0.0237 -0.1157 -0.1416 -0.2597 -0.2815 -0.3360
-0.4560 -0.5512 -0.6725 -0.8209 -0.9876 -1.1414
-1.2798 -1.4099 -1.5262 -1.5930 -1.6614 -1.7200
-1.7644 -1.8025 -1.8375 -1.8473 -1.8312 -1.7865
-1.7219 -1.6352 -1.5208 -1.3904 -1.2467 -1.0929
-0.9435 -0.8118 -0.7122 -0.6407 -0.6004 -0.5739
-0.5550 -0.5436 -0.5169 -0.4872 -0.4523 -0.4293
-0.4157 -0.4207 -0.4374 -0.4756 -0.5178 -0.5522
-0.5770 -0.5610 -0.5314 -0.4671 -0.3940 -0.2871
-0.1330 0.0655 0.3283 0.6437 1.0102 1.3987
1.8002 2.1802 2.5382 2.8527 3.1297 3.3481
3.5201 3.6550 3.7650 3.8737 4.0019 4.1737
4.4198 4.7384 5.1184 5.5514 6.0099 6.4693
6.9054 7.2725 7.5628 7.7761 7.8858 7.9132
7.8476 7.7184 7.5020 7.2489 6.9341 6.6105
6.2563 5.9226 5.5696 5.2681 4.9347 4.6066
4.4475 4.1904 4.0079 3.8258 3.6692 3.4955
3.2948 3.1146 2.8615 2.6230 2.3643 2.0586
1.7139 1.3653 0.9787 0.6031 0.2552 -0.0533
-0.3070 -0.4702 -0.5588 -0.5966 -0.5588 -0.4942
-0.3999 -0.3417 -0.2748 -0.2607 -0.2433 -0.2893
-0.2522 -0.2333 -0.1797 0.0967 0.2546 0.5479
0.8303 1.1372 1.4145 1.6726 1.9212 2.0807
2.2288 2.3079 2.3397 2.3094 2.2956 2.2316
2.1796 2.1144 2.0592 1.9842 1.9263 1.9285
1.9817 2.0762 2.2215 2.3974 2.5956 2.8240
3.0616 3.3251 3.5819 3.8768 4.1305 4.3785
4.5676 4.6788 4.7207 4.6687 4.5499 4.3476
4.1059 3.8195 3.5419 3.2507 2.9825 2.7326
2.4982 2.2867 2.0725 1.8626 1.6351 1.4154
1.1845 0.9387 0.6859 0.4282 0.1525 -0.1554
-0.4809 -0.8216 -1.2007 -1.5886 -1.9875 -2.3981
-2.8393 -3.3066 -3.8064 -4.3232 -4.8333 -5.3180
-5.7431 -6.0916 -6.3327 -6.4420 -6.3966 -6.2296
-5.9047 -5.4749 -4.9499 -4.3644 -3.7755 -3.1969
-2.6820 -2.2437 -1.8901 -1.6286 -1.4354 -1.3387
-1.3015 -1.2930 -1.3541 -1.4316 -1.5463 -1.6787
-1.8303 -1.9907 -2.1659 -2.3779 -2.6096 -2.8727
-3.1443 -3.3964 -3.6233 -3.7837 -3.8814 -3.8776
-3.8032 -3.6567 -3.4512 -3.2956 -3.1153 -2.9883
-2.9067 -2.8973 -2.9445 -3.0504 -3.2322 -3.4194
-3.6324 -3.8171 -3.9620 -4.0626 -4.0985 -4.0651
-3.9866 -3.8725 -3.7298 -3.5785 -3.4519 -3.3450
-3.3088 -3.3151 -3.4027 -3.5162 -3.6973 -3.8603
-4.0496 -4.2986 -4.4647 -4.6774 -4.8349 -5.0240
-5.1563 -5.3029 -5.4403 -5.5701 -5.7141 -5.8745
-6.0125 -6.1319 -6.2835 -6.3916 -6.4814 -6.5451
-6.6134 -6.5539 -6.6160 -6.5328 -6.3365 -6.1137
-5.8026 -5.4453 -5.0013 -4.5652 -4.0459 -3.5269
-2.9968 -2.5012 -1.9935 -1.5328 -1.1184 -0.7466
-0.4242 -0.1671 0.0239 0.1540 0.2004 0.2205
0.2199 0.2148 0.2095 0.2067 0.2139 0.2435
0.2927 0.3743 0.4657 0.5517 0.6210 0.6774
0.6759 0.6217 0.5224 0.3560 0.1373 -0.1018
-0.3587 -0.6271 -0.8824 -1.1206 -1.3075 -1.4575
-1.5653 -1.6163 -1.6305 -1.6384 -1.6475 -1.6614
-1.7042 -1.7896 -1.8920 -2.0275 -2.1936 -2.3612
-2.4993 -2.6039 -2.6512 -2.6297 -2.5298 -2.3524
-2.1126 -1.7984 -1.4405 -1.0570 -0.6813 -0.3067
0.0173 0.3034 0.5331 0.7090 0.8022 0.8422
0.8085 0.7338 0.6179 0.4773 0.3292 0.0532
-0.1346 -0.3105 -0.4961 -0.6435 -0.7441 -0.8093
-0.8458 -0.8137 -0.7611 -0.6769 -0.5830 -0.4466
-0.3117 -0.1567 0.0141 0.2076 0.4427 0.6283
0.8419 1.0783 1.2847 1.4800 1.6622 1.8267
1.9770 2.1500 2.3375 2.5395 2.7604 3.0166
3.2844 3.5633 3.8570 4.1686 4.4841 4.7929
5.0907 5.3500 5.5857 5.7855 5.9390 6.0496
6.1044 6.1028 6.0426 5.9125 5.7099 5.4423
5.1093 4.7418 4.3703 4.0086 3.6919 3.4294
3.2356 3.0953 3.0159 2.9932 3.0178 3.0739
3.1492 3.2145 3.2488 3.2403 3.1666 3.0424
2.8716 2.6718 2.4566 2.2414 2.0287 1.8333
1.6571 1.4955 1.3600 1.2462 1.1567 1.0940
1.0499 1.0297 1.0206 1.0241 1.0329 1.0483
1.0808 1.1205 1.1558 1.1832 1.2009 1.2254
1.2787 1.3543 1.4854 1.6436 1.8324 2.0381
2.2385 2.4383 2.6312 2.8165 2.9806 3.1259
3.2403 3.3386 3.4256 3.5192 3.6225 3.7448
3.9210 4.1349 4.3924 4.6820 4.9741 5.2504
5.4802 5.6689 5.7852 5.8217 5.7776 5.6415
5.4304 5.1527 4.8235 4.4516 4.0470 3.6084
3.1625 2.7109 2.2615 1.8352 1.4120 1.0171
0.6677 0.3935 0.2095 0.1326 0.1805 0.3359
0.5927 0.9223 1.3017 1.6962 2.1097 2.5162
2.9041 3.2687 3.5872 3.8538 4.0492 4.1979
4.2959 4.3511 4.3728 4.3505 4.3057 4.2216
4.1214 4.0243 3.9266 3.8419 3.7832 3.7432
3.7290 3.7142 3.7168 3.7123 3.6736 3.6314
3.5589 3.4940 3.3862 3.3118 3.2428 3.1401
3.0566 2.9961 2.9526 2.9170 2.9264 2.9151
2.9179 2.9217 2.9101 2.8760 2.8240 2.7787
2.7159 2.6643 2.6060 2.5562 2.5013 2.4585
2.3996 2.3359 2.2609 2.1824 2.0832 1.9855
1.8856 1.7425 1.6704 1.5365 1.3906 1.2147
1.0546 0.8757 0.7083 0.6081 0.4865 0.4213
0.3894 0.4052 0.4370 0.5366 0.6661 0.8196
0.9929 1.1552 1.2869 1.3833 1.4381 1.4504
1.4274 1.3940 1.3590 1.3275 1.3209 1.3206
1.3357 1.3502 1.3619 1.3534 1.3130 1.2210
1.0928 0.9236 0.7244 0.5126 0.2917 0.0753
-0.1343 -0.3398 -0.5487 -0.7775 -1.0229 -1.2873
-1.5596 -1.8107 -2.0316 -2.2122 -2.3483 -2.4567
-2.5358 -2.5604 -2.5576 -2.5185 -2.4520 -2.3742
-2.3042 -2.2462 -2.2005 -2.1813 -2.1775 -2.1867
-2.1964 -2.2185 -2.2267 -2.2342 -2.2346 -2.2349
-2.2355 -2.2469 -2.2639 -2.2951 -2.3401 -2.3880
-2.4876 -2.5787 -2.7167 -2.8806 -3.0766 -3.3097
-3.5795 -3.8974 -4.2296 -4.5957 -4.9622 -5.3237
-5.6596 -5.9832 -6.2766 -6.5608 -6.8290 -7.0968
-7.3596 -7.6224 -7.8790 -8.1203 -8.3501 -8.5700
-8.7900 -9.0115 -9.2273 -9.4306 -9.6408 -9.7930
-9.9546 -10.0882 -10.1907 -10.2802 -10.3391 -10.3744
-10.3722 -10.3536 -10.2994 -10.2184 -10.1062 -9.9669
-9.7905 -9.5661 -9.3159 -9.0109 -8.6513 -8.2552
-7.8049 -7.3149 -6.7587 -6.1556 -5.5115 -4.8459
-4.1612 -3.4534 -2.7504 -2.0691 -1.4071 -0.8052
-0.2660 0.2114 0.6125 0.9592 1.2333 1.4693
1.6502 1.7873 1.8916 1.9474 1.9656 1.9559
1.9215 1.8721 1.8134 1.7662 1.7372 1.7362
1.7649 1.8138 1.8957 1.9934 2.0980 2.1922
2.2578 2.2836 2.2622 2.1938 2.0892 1.9638
1.8516 1.7618 1.7120 1.7041 1.7520 1.8402
1.9742 2.1257 2.2732 2.4008 2.4884 2.5190
2.4812 2.3841 2.2029 1.9524 1.6351 1.2692
0.8555 0.4424 0.0148 -0.3908 -0.7765 -1.1118
-1.4219 -1.6714 -1.8955 -2.0786 -2.2497 -2.4006
-2.5544 -2.7208 -2.8897 -3.0829 -3.2464 -3.4424
-3.5584 -3.7109 -3.6850 -3.8035 -3.8168 -3.7298
-3.7370 -3.6592 -3.6554 -3.5807 -3.6047 -3.5726
-3.5480 -3.5313 -3.5158 -3.4582 -3.4169 -3.3866
-3.3208 -3.2609 -3.1909 -3.1109 -2.9921 -2.8588
-2.6836 -2.4763 -2.2308 -1.9664 -1.6853 -1.3976
-1.1090 -0.8348 -0.5597 -0.3054 -0.0476 0.2004
0.4613 0.7288 1.0127 1.3140 1.6329 1.9798
2.3473 2.7345 3.1139 3.4770 3.7993 4.0691
4.2714 4.4066 4.4910 4.5099 4.4948 4.4693
4.4296 4.4129 4.4110 4.4355 4.4652 4.5272
4.6010 4.6728 4.7453 4.8036 4.8427 4.8868
4.9416 5.0198 5.1241 5.2681 5.4360 5.6289
5.8457 6.0625 6.2932 6.4816 6.6830 6.8087
6.8966 6.9360 6.9407 6.9155 6.8119 6.7365
6.6177 6.4986 6.4013 6.3083 6.2292 6.1406
6.0858 6.0332 5.9780 5.9185 5.8542 5.7843
5.6695 5.5504 5.4427 5.3434 5.2435 5.1862
5.1219 5.0655 5.0415 5.0154 4.9930 4.9725
4.9700 4.9627 4.9549 4.9508 4.9473 4.9331
4.8956 4.8291 4.7116 4.5354 4.2824 3.9569
3.5457 3.0613 2.5376 1.9704 1.4066 0.8486
0.3258 -0.1664 -0.6133 -1.0191 -1.3989 -1.7619
-2.1132 -2.4700 -2.8349 -3.2136 -3.6085 -4.0235
-4.4363 -4.8636 -5.2862 -5.7109 -6.1244 -6.5224
-6.9412 -7.2588 -7.6136 -7.9051 -8.1534 -8.3362
-8.4421 -8.5019 -8.4928 -8.4657 -8.4033 -8.3081
-8.1963 -8.0715 -7.8998 -7.7242 -7.5065 -7.2872
-7.0196 -6.7855 -6.5224 -6.3053 -6.0642 -5.8824
-5.6580 -5.3854 -5.2559 -5.0908 -4.9755 -4.8633
-4.7990 -4.6859 -4.5475 -4.4161 -4.2343 -4.0024
-3.7676 -3.4868 -3.1626 -2.8254 -2.4703 -2.1073
-1.7345 -1.3803 -1.0006 -0.6240 -0.2465 0.1377
0.5252 0.9040 1.2815 1.6584 2.0419 2.4185
2.8045 3.1927 3.5775 3.9440 4.2900 4.5959
4.8506 5.0396 5.1468 5.1710 5.0995 4.9441
4.6961 4.3691 3.9663 3.5255 3.0701 2.6265
2.2291 1.8790 1.5727 1.3086 1.0742 0.8561
0.6409 0.4329 0.2249 0.0318 -0.1384 -0.2808
-0.3889 -0.4538 -0.4746 -0.4494 -0.3820 -0.2890
-0.1790 -0.0732 0.0337 0.1175 0.1827 0.2253
0.2511 0.2747 0.2930 0.3201 0.3463 0.3737
0.4020 0.4298 0.4559 0.4723 0.4821 0.4865
0.4890 0.5126 0.5646 0.6415 0.7540 0.9046
1.0650 1.2478 1.4583 1.6830 1.9256 2.1884
2.4657 2.7289 2.9816 3.2069 3.3755 3.4921
3.5646 3.5762 3.5472 3.4725 3.3616 3.2346
3.0900 2.9545 2.8354 2.7371 2.6548 2.5779
2.4925 2.3901 2.2515 2.0892 1.9058 1.7060
1.5176 1.3449 1.1939 1.0833 1.0162 0.9976
1.0260 1.0862 1.1612 1.2308 1.2598 1.2377
1.1486 0.9919 0.7669 0.4830 0.1629 -0.1775
-0.5238 -0.8632 -1.1792 -1.4821 -1.7423 -1.9755
-2.1722 -2.3414 -2.4841 -2.5843 -2.6600 -2.7183
-2.7536 -2.7819 -2.8115 -2.8623 -2.9111 -2.9830
-3.0885 -3.1768 -3.2852 -3.3765 -3.4654 -3.5272
-3.5707 -3.5974 -3.6019 -3.6037 -3.5956 -3.5697
-3.5224 -3.4692 -3.3942 -3.3138 -3.2316 -3.1424
-3.0375 -2.9165 -2.7633 -2.5793 -2.3625 -2.1123
-1.8378 -1.5429 -1.2400 -0.9520 -0.6801 -0.4362
-0.2273 -0.0527 0.0835 0.1890 0.2565 0.3056
0.3340 0.3538 0.3705 0.3806 0.4014 0.4272
0.4588 0.5035 0.5539 0.6031 0.6636 0.7168
0.7717 0.8297 0.8835 0.9566 1.0386 1.1375
1.2557 1.3909 1.5491 1.7060 1.8648 2.0095
2.1191 2.1859 2.1932 2.1346 2.0044 1.8182
1.5771 1.2929 0.9702 0.6267 0.2873 -0.0426
-0.3527 -0.6256 -0.8619 -1.0579 -1.2095 -1.3406
-1.4417 -1.5246 -1.5958 -1.6592 -1.7159 -1.7682
-1.8255 -1.8898 -1.9787 -2.0959 -2.2462 -2.4337
-2.6508 -2.8872 -3.1440 -3.3970 -3.6349 -3.8517
-4.0440 -4.2173 -4.3635 -4.4936 -4.6036 -4.6887
-4.7681 -4.8330 -4.8986 -4.9695 -5.0382 -5.1097
-5.1800 -5.2562 -5.3186 -5.3785 -5.4393 -5.4951
-5.5458 -5.5969 -5.6599 -5.7450 -5.8653 -6.0342
-6.2583 -6.5280 -6.8391 -7.1671 -7.5077 -7.8270
-8.1128 -8.3614 -8.5640 -8.7175 -8.8076 -8.8319
-8.7852 -8.6522 -8.4462 -8.1786 -7.8591 -7.5058
-7.1287 -6.7527 -6.3881 -6.0450 -5.7374 -5.4623
-5.2143 -5.0107 -4.8210 -4.6651 -4.5163 -4.3792
-4.2346 -4.0575 -3.8404 -3.5744 -3.2496 -2.8733
-2.4466 -1.9749 -1.4909 -0.9943 -0.5260 -0.0558
0.3570 0.7931 1.1586 1.5822 2.0236 2.3696
2.7856 3.1467 3.5331 3.8680 4.2232 4.5578
4.8701 5.1726 5.4367 5.6557 5.8369 6.0300
6.1533 6.3259 6.3984 6.6061 6.8390 7.0041
7.2369 7.4415 7.6715 7.8540 8.0310 8.1883
8.3222 8.3997 8.4483 8.4385 8.4067 8.3418
8.2686 8.1886 8.0966 8.0118 7.9170 7.8177
7.6942 7.5628 7.3895 7.1998 6.9949 6.7652
6.4964 6.2166 5.9005 5.5684 5.2230 4.8814
4.5272 4.1623 3.8041 3.4313 3.0645 2.6901
2.3258 1.9893 1.7057 1.4605 1.2396 1.0383
0.8609 0.6787 0.5249 0.3734 0.2265 0.1184
-0.0032 -0.1154 -0.2112 -0.2991 -0.3946 -0.5014
-0.6161 -0.7393 -0.8805 -1.0128 -1.1524 -1.2968
-1.4206 -1.5369 -1.6431 -1.7228 -1.7748 -1.8066
-1.8186 -1.8205 -1.8060 -1.7861 -1.7474 -1.6960
-1.6280 -1.5526 -1.4613 -1.3853 -1.3273 -1.2842
-1.2763 -1.2939 -1.3273 -1.3683 -1.4212 -1.4672
-1.5098 -1.5385 -1.5652 -1.5728 -1.5599 -1.5132
-1.4373 -1.3176 -1.1430 -0.9337 -0.6880 -0.4258
-0.1529 0.1436 0.4600 0.7805 1.1199 1.4652
1.8002 2.1349 2.4572 2.7698 3.0566 3.3213
3.5539 3.7562 3.9320 4.0877 4.2241 4.3284
4.3996 4.4453 4.4730 4.4913 4.4951 4.4639
4.4050 4.3303 4.2462 4.1390 4.0590 3.9641
3.8888 3.8044 3.7511 3.6944 3.6519 3.6046
3.5728 3.5107 3.4385 3.3840 3.1867 3.0588
2.8896 2.7021 2.5058 2.3044 2.1141 1.9156
1.7397 1.5888 1.4044 1.2456 1.0833 0.9191
0.7216 0.4789 0.2908 0.0617 -0.1737 -0.4229
-0.6741 -0.9580 -1.1975 -1.4260 -1.6172 -1.7600
-1.8570 -1.8845 -1.8908 -1.8611 -1.8262 -1.8032
-1.7600 -1.8032 -1.8763 -1.9595 -2.0783 -2.2012
-2.3193 -2.4176 -2.4816 -2.4980 -2.4929 -2.4243
-2.3499 -2.2308 -2.0893 -1.9261 -1.7417 -1.5214
-1.2665 -0.9829 -0.6571 -0.3000 0.0828 0.4934
0.9144 1.3329 1.7306 2.0908 2.4062 2.6611
2.8508 2.9621 3.0147 3.0027 2.9422 2.8388
2.7043 2.5452 2.3649 2.1815 2.0038 1.8346
1.6877 1.5607 1.4624 1.3852 1.3411 1.3168
1.3326 1.3625 1.3962 1.4410 1.4615 1.4697
1.4561 1.4110 1.3446 1.2595 1.1419 0.9995
0.8341 0.6472 0.4430 0.2328 0.0245 -0.1494
-0.3038 -0.4154 -0.4929 -0.5310 -0.5392 -0.5276
-0.4910 -0.4544 -0.4273 -0.4296 -0.4406 -0.4809
-0.5370 -0.5956 -0.6555 -0.7141 -0.7730 -0.8367
-0.9063 -0.9848 -1.0645 -1.1641 -1.2738 -1.3995
-1.5271 -1.6569 -1.7924 -1.9056 -2.0105 -2.0887
-2.1589 -2.2008 -2.2399 -2.2689 -2.2969 -2.3316
-2.3634 -2.4098 -2.4608 -2.5314 -2.6089 -2.6930
-2.7879 -2.8935 -3.0012 -3.1106 -3.2124 -3.2968
-3.3611 -3.4074 -3.4361 -3.4525 -3.4632 -3.4730
-3.4749 -3.4752 -3.4534 -3.4125 -3.3447 -3.2489
-3.1210 -2.9628 -2.7892 -2.6010 -2.4123 -2.2286
-2.0455 -1.8646 -1.6922 -1.5076 -1.3321 -1.1546
-0.9785 -0.7954 -0.6104 -0.4084 -0.2036 0.0214
0.2543 0.4824 0.7064 0.9214 1.1186 1.3039
1.4791 1.6468 1.8147 1.9802 2.1560 2.3255
2.5212 2.7188 2.9482 3.1852 3.4458 3.7206
4.0196 4.3158 4.6221 4.8975 5.1710 5.3954
5.6021 5.7480 5.9018 6.0420 6.0874 6.1867
6.1955 6.2179 6.1526 6.1381 6.0253 5.9002
5.7698 5.6097 5.4225 5.2350 5.0926 4.8934
4.8090 4.6464 4.5329 4.3861 4.2641 4.0927
3.9011 3.7001 3.4392 3.1704 2.8688 2.5634
2.2168 1.8919 1.5443 1.2125 0.9040 0.6141
0.3396 0.0973 -0.1384 -0.3624 -0.5849 -0.8045
-1.0516 -1.3002 -1.5668 -1.8567 -2.1425 -2.4290
-2.7038 -2.9637 -3.1944 -3.4021 -3.5675 -3.7087
-3.8227 -3.9239 -4.0172 -4.1186 -4.2327 -4.3635
-4.5069 -4.6534 -4.7835 -4.8866 -4.9493 -4.9528
-4.8932 -4.7649 -4.5746 -4.3216 -4.0320 -3.7102
-3.3841 -3.0803 -2.8200 -2.6234 -2.5005 -2.4681
-2.5169 -2.6467 -2.8440 -3.0816 -3.3419 -3.5959
-3.8300 -4.0329 -4.1861 -4.2957 -4.3629 -4.3900
-4.3859 -4.3613 -4.3137 -4.2494 -4.1769 -4.0900
-3.9853 -3.8628 -3.7310 -3.5788 -3.4184 -3.2451
-3.0655 -2.8853 -2.7142 -2.5563 -2.4161 -2.3149
-2.2531 -2.2323 -2.2626 -2.3477 -2.4762 -2.6537
-2.8720 -3.1257 -3.3992 -3.6907 -3.9806 -4.2601
-4.5160 -4.7385 -4.9212 -5.0621 -5.1692 -5.2408
-5.2943 -5.3426 -5.4031 -5.4718 -5.5669 -5.6892
-5.8442 -6.0210 -6.2176 -6.4215 -6.6011 -6.7603
-6.8895 -6.9768 -7.0221 -7.0429 -7.0341 -6.9730
-6.8800 -6.7707 -6.6364 -6.4732 -6.3103 -6.1363
-5.9277 -5.7153 -5.4740 -5.2156 -4.9310 -4.6228
-4.2910 -3.9267 -3.5599 -3.1878 -2.8219 -2.4690
-2.1460 -1.8495 -1.5741 -1.3409 -1.1326 -0.9353
-0.7481 -0.5613 -0.3757 -0.1891 0.0110 0.2114
0.4194 0.6261 0.8416 1.0644 1.2954 1.5500
1.8059 2.0927 2.3933 2.7270 3.0607 3.4199
3.7552 4.1050 4.4296 4.7062 5.0239 5.2854
5.5479 5.7833 6.0061 6.1986 6.3549 6.4977
6.5815 6.6181 6.6137 6.5670 6.4826 6.3792
6.2513 6.1107 5.9702 5.8230 5.6891 5.5599
5.4745 5.4105 5.3853 5.3878 5.4178 5.4628
5.5208 5.5728 5.6087 5.6163 5.5687 5.5262
5.3885 5.2438 5.0396 4.8597 4.6388 4.4252
4.2739 4.1025 3.9818 3.8630 3.7833 3.6780
3.5759 3.4593 3.3251 3.1527 2.9643 2.7497
2.5111 2.2505 1.9723 1.6855 1.3789 1.0682
0.7399 0.3954 0.0365 -0.3218 -0.6955 -1.0667
-1.4301 -1.7811 -2.1258 -2.4617 -2.7844 -3.0942
-3.3784 -3.6252 -3.8316 -3.9850 -4.0780 -4.1174
-4.0960 -4.0178 -3.8930 -3.7235 -3.5265 -3.3044
-3.0605 -2.8118 -2.5657 -2.3285 -2.1085 -1.9027
-1.7162 -1.5479 -1.4070 -1.2971 -1.2180 -1.1698
-1.1490 -1.1458 -1.1521 -1.1540 -1.1420 -1.1089
-1.0434 -0.9432 -0.8033 -0.6401 -0.4418 -0.2317
-0.0139 0.2035 0.4080 0.5993 0.7821 0.9447
1.0909 1.2201 1.3458 1.4634 1.5837 1.7010
1.8169 1.9345 2.0558 2.1768 2.2987 2.4368
2.5660 2.7119 2.8370 2.9895 3.1392 3.3163
3.4993 3.7045 3.9065 4.1255 4.3231 4.5036
4.6571 4.7885 4.8745 4.9164 4.9854 4.9731
4.9958 4.9848 5.0384 5.0337 5.0648 5.1159
5.1455 5.1836 5.2038 5.2404 5.2319 5.2341
5.1934 5.1600 5.0696 4.9839 4.8622 4.7368
4.5956 4.4513 4.3139 4.1772 4.0666 3.9752
3.9103 3.8630 3.8457 3.8290 3.8318 3.8359
3.8457 3.8425 3.8378 3.8375 3.8359 3.8450
3.8778 3.9260 4.0023 4.0908 4.1825 4.2575
4.3139 4.3385 4.3243 4.2720 4.1882 4.0782
3.9342 3.7792 3.6099 3.4480 3.3040 3.1877
3.0900 3.0197 2.9681 2.9334 2.9211 2.9258
2.9586 3.0043 3.0724 3.1483 3.2236 3.2958
3.3516 3.3881 3.3954 3.3711 3.3087 3.2116
3.0846 2.9186 2.7172 2.4922 2.2414 1.9770
1.6921 1.3940 1.0925 0.7824 0.4827 0.1903
-0.0886 -0.3552 -0.6095 -0.8524 -1.0841 -1.3072
-1.5221 -1.7228 -1.9153 -2.0855 -2.2257 -2.3389
-2.4161 -2.4507 -2.4520 -2.4280 -2.3839 -2.3379
-2.3020 -2.2787 -2.2881 -2.3354 -2.4258 -2.5534
-2.7208 -2.9108 -3.1125 -3.3255 -3.5237 -3.7061
-3.8609 -3.9882 -4.0811 -4.1290 -4.1410 -4.1174
-4.0575 -3.9822 -3.8955 -3.8089 -3.7336 -3.6655
-3.6151 -3.5688 -3.5335 -3.5010 -3.4594 -3.4137
-3.3545 -3.2974 -3.2366 -3.1802 -3.1490 -3.1342
-3.1575 -3.2111 -3.2892 -3.4052 -3.5372 -3.6787
-3.8294 -3.9749 -4.1041 -4.2107 -4.2913 -4.3414
-4.3613 -4.3581 -4.3178 -4.2510 -4.1662 -4.0644
-3.9608 -3.8621 -3.7818 -3.7165 -3.6803 -3.6746
-3.6876 -3.7188 -3.7641 -3.8133 -3.8814 -3.9532
-4.0310 -4.1145 -4.1977 -4.2686 -4.3238 -4.3855
-4.4262 -4.4596 -4.4880 -4.5062 -4.5037 -4.5050
-4.5009 -4.4848 -4.4769 -4.4687 -4.4555 -4.4334
-4.4076 -4.3720 -4.3313 -4.2847 -4.2384 -4.1939
-4.1656 -4.1574 -4.1791 -4.2296 -4.3017 -4.3994
-4.5106 -4.6228 -4.7252 -4.8163 -4.8746 -4.8992
-4.8837 -4.8207 -4.7145 -4.5727 -4.4016 -4.1987
-3.9850 -3.7701 -3.5703 -3.3854 -3.2281 -3.1011
-3.0182 -2.9744 -2.9672 -3.0031 -3.0586 -3.1396
-3.2086 -3.2795 -3.3299 -3.3419 -3.3198 -3.2514
-3.1433 -2.9877 -2.7955 -2.5717 -2.3199 -2.0461
-1.7581 -1.4534 -1.1442 -0.8379 -0.5332 -0.2411
0.0315 0.2855 0.5155 0.7232 0.8955 1.0376
1.1653 1.2737 1.3622 1.4337 1.4845 1.5302
1.5346 1.5043 1.4697 1.3937 1.2979 1.1930
1.0893 0.9919 0.9270 0.9009 0.9088 0.9689
1.0701 1.2018 1.3606 1.5365 1.7107 1.8840
2.0507 2.1992 2.3274 2.4358 2.5275 2.5950
2.6432 2.6785 2.6958 2.7027 2.7043 2.7024
2.6980 2.6908 2.6835 2.6681 2.6542 2.6479
2.6447 2.6517 2.6674 2.6977 2.7390 2.7951
2.8729 2.9706 3.0928 3.2548 3.4455 3.6588
3.8954 4.1384 4.3845 4.6174 4.8367 5.0314
5.1852 5.2993 5.3595 5.3674 5.3242 5.2379
5.1247 4.9899 4.8685 4.7645 4.6829 4.6376
4.6303 4.6665 4.7393 4.8540 4.9858 5.1380
5.2946 5.4411 5.5719 5.6778 5.7597 5.8170
5.8545 5.8681 5.8820 5.8775 5.8731 5.8675
5.8489 5.8400 5.8218 5.8073 5.7969 5.7786
5.7613 5.7351 5.7178 5.6721 5.6289 5.5788
5.4909 5.3957 5.2785 5.1502 4.9990 4.8509
4.6943 4.5348 4.3738 4.2125 4.0480 3.8747
3.7023 3.5028 3.2895 3.0632 2.8165 2.5675
2.3073 2.0548 1.7996 1.5579 1.3424 1.1249
0.9327 0.7474 0.5760 0.4260 0.2940 0.1685
0.0532 -0.0517 -0.1620 -0.2635 -0.3722 -0.4841
-0.5956 -0.7172 -0.8392 -0.9687 -1.1011 -1.2416
-1.3910 -1.5492 -1.7206 -1.9062 -2.1050 -2.3102
-2.5282 -2.7368 -2.9373 -3.1118 -3.2558 -3.3740
-3.4544 -3.5016 -3.5133 -3.4919 -3.4493 -3.3813
-3.3006 -3.2243 -3.1544 -3.0961 -3.0570 -3.0494
-3.0709 -3.0995 -3.1370 -3.1827 -3.2183 -3.2530
-3.2656 -3.2707 -3.2530 -3.1953 -3.1062 -2.9874
-2.8383 -2.6514 -2.4460 -2.2178 -1.9724 -1.7196
-1.4578 -1.2013 -0.9561 -0.7258 -0.5203 -0.3319
-0.1746 -0.0397 0.0652 0.1452 0.2202 0.2877
0.3623 0.4578 0.5722 0.7178 0.8864 1.0748
1.2878 1.4955 1.6994 1.8948 2.0640 2.2042
2.3088 2.3775 2.4100 2.3955 2.3542 2.2757
2.1651 2.0259 1.8629 1.6770 1.4753 1.2503
1.0203 0.7764 0.5294 0.2817 0.0371 -0.1853
-0.3961 -0.5376 -0.7157 -0.8165 -0.8534 -0.9129
-0.8988 -0.8742 -0.8565 -0.8108 -0.7472 -0.6974
-0.6747 -0.6460 -0.6155 -0.6202 -0.6048 -0.5877
-0.5707 -0.5506 -0.5313 -0.5099 -0.4932 -0.4677
-0.4431 -0.4056 -0.3590 -0.3000 -0.2187 -0.1336
-0.0442 0.0469 0.1374 0.2212 0.3050 0.3847
0.4553 0.5344 0.6056 0.6749 0.7408 0.8183
0.9021 0.9866 1.0773 1.1549 1.2210 1.2778
1.3165 1.3279 1.3257 1.3011 1.2579 1.1946
1.1130 1.0231 0.9236 0.8186 0.7131 0.6110
0.5205 0.4424 0.3756 0.3239 0.2656 0.2363
0.2130 0.1928 0.1991 0.2054 0.2243 0.2432
0.2574 0.2618 0.2536 0.2404 0.2139 0.1774
0.1452 0.1046 0.0661 0.0330 -0.0063 -0.0331
-0.0508 -0.0738 -0.0823 -0.1002 -0.1314 -0.1680
-0.2080 -0.2477 -0.2849 -0.3000 -0.3044 -0.2758
-0.2165 -0.1292 -0.0243 0.0961 0.2215 0.3352
0.4496 0.5483 0.6431 0.7323 0.8089 0.8750
0.9242 0.9614 0.9838 0.9986 1.0058 1.0159
1.0288 1.0430 1.0748 1.1221 1.1939 1.2771
1.3673 1.4631 1.5469 1.6253 1.6975 1.7583
1.8132 1.8598 1.9004 1.9313 1.9442 1.9326
1.8878 1.8075 1.6862 1.5267 1.3282 1.0966
0.8300 0.5420 0.2316 -0.0889 -0.4034 -0.7122
-0.9993 -1.2624 -1.5164 -1.7439 -1.9440 -2.1397
-2.3262 -2.4967 -2.6455 -2.7888 -2.9401 -3.0778
-3.1997 -3.3252 -3.4348 -3.5290 -3.6201 -3.7153
-3.7963 -3.8832 -3.9579 -4.0250 -4.1070 -4.1668
-4.2147 -4.2607 -4.3055 -4.3329 -4.3616 -4.3773
-4.3773 -4.3764 -4.3937 -4.4391 -4.5157 -4.6165
-4.7435 -4.9137 -5.1248 -5.3586 -5.5928 -5.8244
-6.0345 -6.2280 -6.4036 -6.5447 -6.6427 -6.6979
-6.7073 -6.6714 -6.5999 -6.4953 -6.3657 -6.2164
-6.0320 -5.8124 -5.5568 -5.2783 -4.9783 -4.6663
-4.3487 -4.0263 -3.7096 -3.3932 -3.0857 -2.7876
-2.5074 -2.2544 -2.0269 -1.8104 -1.6160 -1.4285
-1.2463 -1.0721 -0.9038 -0.7362 -0.5695 -0.4106
-0.2663 -0.1336 -0.0123 0.0948 0.1865 0.2653
0.3403 0.3923 0.4257 0.4396 0.4396 0.4184
0.3945 0.3444 0.2955 0.2391 0.1843 0.1254
0.0573 0.0063 -0.0738 -0.1359 -0.1967 -0.2458
-0.2833 -0.3026 -0.3026 -0.2928 -0.2569 -0.2178
-0.1724 -0.1245 -0.0798 -0.0394 -0.0041 0.0371
0.0743 0.1153 0.1600 0.2070 0.2741 0.3548
0.4436 0.5385 0.6441 0.7446 0.8464 0.9390
1.0260 1.1022 1.1694 1.2365 1.3017 1.3632
1.4152 1.4621 1.4993 1.5270 1.5532 1.5815
1.6112 1.6550 1.7007 1.7549 1.8068 1.8563
1.9004 1.9417 1.9786 2.0126 2.0435 2.0649
2.0788 2.0845 2.0801 2.0583 2.0237 1.9679
1.9036 1.8267 1.7539 1.6770 1.6090 1.5507
1.5015 1.4574 1.4243 1.3833 1.3342 1.2730
1.1820 1.0751 0.9469 0.8108 0.6494 0.4906
0.3239 0.1657 0.0066 -0.1362 -0.2635 -0.3826
-0.4859 -0.5676 -0.6303 -0.6848 -0.7172 -0.7311
-0.7349 -0.7235 -0.6876 -0.6410 -0.5748 -0.4951
-0.4002 -0.2962 -0.1740 -0.0435 0.1052 0.2470
0.3923 0.5196 0.6478 0.7474 0.8489 0.9078
0.9730 1.0531 1.0745 1.1057 1.1079 1.1221
1.0833 1.0644 1.0206 0.9677 0.9148 0.8498
0.7736 0.6772 0.5848 0.4695 0.3526 0.2250
0.0964 -0.0432 -0.1727 -0.2956 -0.4006 -0.4913
-0.5531 -0.6029 -0.6322 -0.6454 -0.6441 -0.6281
-0.6010 -0.5732 -0.5458 -0.5370 -0.5461 -0.5802
-0.6473 -0.7402 -0.8635 -1.0049 -1.1606 -1.3245
-1.4861 -1.6427 -1.7968 -1.9156 -2.0190 -2.0776
-2.1034 -2.0886 -2.0411 -1.9692 -1.8674 -1.7518
-1.6194 -1.4805 -1.3317 -1.1865 -1.0371 -0.8836
-0.7261 -0.5572 -0.3810 -0.2083 -0.0322 0.1396
0.3126 0.4777 0.6422 0.8019 0.9529 1.1013
1.2481 1.3944 1.5431 1.6969 1.8620 2.0435
2.2342 2.4528 2.6775 2.9148 3.1584 3.4007
3.6342 3.8564 4.0647 4.2462 4.4050 4.5455
4.6628 4.7620 4.8503 4.9186 4.9845 5.0381
5.0838 5.1250 5.1666 5.2029 5.2344 5.2542
5.2596 5.2568 5.2426 5.2193 5.1896 5.1632
5.1310 5.0995 5.0680 5.0362 5.0025 4.9678
4.9347 4.8956 4.8540 4.8039 4.7406 4.6653
4.5692 4.4633 4.3432 4.2036 4.0439 3.8583
3.6424 3.3903 3.1042 2.7888 2.4462 2.0801
1.7032 1.3124 0.9214 0.5278 0.1329 -0.2625
-0.6574 -1.0383 -1.4181 -1.7801 -2.1261 -2.4545
-2.7567 -3.0346 -3.2832 -3.4988 -3.6872 -3.8568
-4.0001 -4.1347 -4.2541 -4.3559 -4.4501 -4.5311
-4.5976 -4.6521 -4.6943 -4.7255 -4.7555 -4.7813
-4.8106 -4.8418 -4.8721 -4.9014 -4.9260 -4.9468
-4.9587 -4.9672 -4.9657 -4.9512 -4.9282 -4.8859
-4.8276 -4.7542 -4.6660 -4.5683 -4.4564 -4.3383
-4.2147 -4.0808 -3.9374 -3.7915 -3.6428 -3.4928
-3.3535 -3.2227 -3.1068 -3.0034 -2.9168 -2.8342
-2.7583 -2.6896 -2.6212 -2.5456 -2.4643 -2.3767
-2.2805 -2.1832 -2.0817 -1.9780 -1.8709 -1.7637
-1.6506 -1.5274 -1.3992 -1.2703 -1.1244 -0.9782
-0.8285 -0.6801 -0.5373 -0.3971 -0.2666 -0.1377
-0.0117 0.1181 0.2584 0.4131 0.5776 0.7616
0.9589 1.1716 1.3972 1.6316 1.8692 2.1040
2.3268 2.5345 2.7207 2.8842 3.0308 3.1527
3.2558 3.3418 3.4117 3.4672 3.5189 3.5665
3.6191 3.6733 3.7363 3.8079 3.8844 3.9635
4.0448 4.1132 4.1633 4.1945 4.1898 4.1535
4.0789 3.9676 3.8119 3.6241 3.3991 3.1455
2.8748 2.5928 2.3063 2.0274 1.7602 1.5065
1.2724 1.0591 0.8706 0.6939 0.5379 0.3964
0.2659 0.1465 0.0331 -0.0747 -0.1746 -0.2789
-0.3760 -0.4793 -0.5877 -0.6974 -0.8215 -0.9545
-1.0948 -1.2306 -1.3645 -1.4871 -1.6043 -1.7023
-1.7962 -1.8703 -1.9345 -1.9802 -2.0051 -2.0221
-2.0111 -1.9884 -1.9506 -1.9008 -1.8353 -1.7811
-1.7058 -1.6588 -1.5813 -1.5094 -1.4616 -1.3938
-1.3320 -1.2526 -1.1783 -1.0648 -0.9507 -0.8108
-0.6561 -0.4882 -0.3404 -0.1951 -0.0527 0.0674
0.1871 0.3078 0.4304 0.5401 0.6696 0.7837
0.8883 0.9938 1.0947 1.1880 1.2781 1.3641
1.4382 1.5009 1.5601 1.6001 1.6257 1.6370
1.6335 1.6159 1.5781 1.5283 1.4687 1.4054
1.3427 1.2954 1.2570 1.2352 1.2245 1.2210
1.2166 1.2078 1.2047 1.1791 1.1404 1.0808
0.9976 0.8864 0.7597 0.6217 0.4682 0.3195
0.1626 0.0195 -0.1286 -0.2644 -0.3946 -0.5153
-0.6271 -0.7267 -0.8061 -0.8720 -0.9066 -0.9233
-0.9126 -0.8827 -0.8351 -0.7771 -0.7100 -0.6444
-0.5751 -0.5083 -0.4491 -0.3883 -0.3243 -0.2644
-0.1938 -0.1251 -0.0561 0.0145 0.0791 0.1320
0.1745 0.2124 0.2382 0.2653 0.2826 0.3091
0.3371 0.3728 0.4106 0.4588 0.5086 0.5618
0.6170 0.6674 0.7200 0.7648 0.8079 0.8445
0.8773 0.9069 0.9450 0.9863 1.0380 1.0956
1.1653 1.2441 1.3260 1.4145 1.5072 1.5992
1.6966 1.7898 1.8834 1.9713 2.0479 2.1119
2.1563 2.1850 2.1948 2.1985 2.1948 2.1897
2.1837 2.1869 2.1948 2.2181 2.2442 2.2726
2.3054 2.3309 2.3589 2.3725 2.3769 2.3659
2.3309 2.2776 2.2052 2.1144 2.0129 1.8998
1.7816 1.6528 1.5201 1.3802 1.2409 1.1026
0.9595 0.8224 0.6772 0.5272 0.3794 0.2328
0.0888 -0.0438 -0.1667 -0.2704 -0.3608 -0.4305
-0.4847 -0.5241 -0.5550 -0.5773 -0.5959 -0.6177
-0.6416 -0.6772 -0.7276 -0.7948 -0.8694 -0.9567
-1.0469 -1.1474 -1.2419 -1.3437 -1.4448 -1.5485
-1.6538 -1.7625 -1.8816 -1.9979 -2.1328 -2.2708
-2.4261 -2.5890 -2.7579 -2.9376 -3.1169 -3.2943
-3.4685 -3.6400 -3.8041 -3.9582 -4.1114 -4.2645
-4.4044 -4.5469 -4.6824 -4.8027 -4.9152 -5.0145
-5.1084 -5.1888 -5.2575 -5.3186 -5.3611 -5.4021
-5.4346 -5.4629 -5.4947 -5.5300 -5.5719 -5.6233
-5.6785 -5.7336 -5.7973 -5.8499 -5.9044 -5.9482
-5.9803 -6.0084 -6.0188 -6.0282 -6.0371 -6.0352
-6.0327 -6.0286 -6.0172 -6.0052 -5.9885 -5.9611
-5.9233 -5.8723 -5.8055 -5.7191 -5.6208 -5.5073
-5.3744 -5.2329 -5.0696 -4.9004 -4.7322 -4.5620
-4.4000 -4.2456 -4.0969 -3.9570 -3.8082 -3.6617
-3.5063 -3.3403 -3.1685 -2.9814 -2.7939 -2.6001
-2.4082 -2.2213 -2.0467 -1.8772 -1.7228 -1.5753
-1.4316 -1.2920 -1.1499 -1.0201 -0.8890 -0.7683
-0.6511 -0.5376 -0.4327 -0.3309 -0.2446 -0.1652
-0.1037 -0.0580 -0.0325 -0.0265 -0.0416 -0.0826
-0.1412 -0.2175 -0.3085 -0.4163 -0.5279 -0.6495
-0.7689 -0.8880 -1.0037 -1.1143 -1.2239 -1.3235
-1.4259 -1.5198 -1.6040 -1.6837 -1.7511 -1.8107
-1.8583 -1.8914 -1.9125 -1.9134 -1.9037 -1.8819
-1.8488 -1.8091 -1.7622 -1.7089 -1.6538 -1.5967
-1.5422 -1.4833 -1.4231 -1.3698 -1.3166 -1.2741
-1.2425 -1.2221 -1.2044 -1.1924 -1.1767 -1.1546
-1.1178 -1.0654 -0.9895 -0.8943 -0.7806 -0.6457
-0.5045 -0.3567 -0.2118 -0.0615 0.0753 0.2143
0.3422 0.4726 0.6072 0.7421 0.8959 1.0518
1.2179 1.3944 1.5781 1.7697 1.9736 2.1863
2.4135 2.6394 2.8767 3.1155 3.3453 3.5652
3.7691 3.9471 4.0971 4.2188 4.3117 4.3672
4.3978 4.4053 4.3766 4.3429 4.2875 4.2213
4.1485 4.0956 4.0480 4.0209 4.0196 4.0429
4.0858 4.1510 4.2342 4.3253 4.4189 4.5103
4.6079 4.6949 4.7756 4.8455 4.9057 4.9407
4.9665 4.9584 4.9543 4.8931 4.8512 4.7677
4.6625 4.5424 4.3981 4.2686 4.0748 3.9289
3.7505 3.5889 3.4168 3.2722 3.1269 2.9832
2.8663 2.7557 2.6630 2.5701 2.5004 2.4188
2.3410 2.2587 2.1705 2.0703 1.9786 1.8819
1.7892 1.7060 1.6392 1.5727 1.5192 1.4772
1.4388 1.4057 1.3821 1.3594 1.3465 1.3339
1.3282 1.3295 1.3326 1.3462 1.3610 1.3900
1.4164 1.4448 1.4763 1.5144 1.5384 1.5768
1.6121 1.6499 1.6925 1.7347 1.7801 1.8214
1.8730 1.9137 1.9490 1.9723 1.9805 1.9562
1.9061 1.8343 1.7347 1.6172 1.4864 1.3436
1.1977 1.0493 0.8999 0.7556 0.6129 0.4752
0.3494 0.2231 0.1118 0.0116 -0.0801 -0.1462
-0.2011 -0.2238 -0.2234 -0.1960 -0.1462 -0.0760
0.0053 0.0970 0.1912 0.2798 0.3639 0.4358
0.5127 0.5631 0.6034 0.6315 0.6359 0.6277
0.6022 0.5606 0.5083 0.4415 0.3718 0.2946
0.2057 0.1185 0.0255 -0.0653 -0.1519 -0.2401
-0.3293 -0.4119 -0.4875 -0.5553 -0.6110 -0.6526
-0.6838 -0.6968 -0.7034 -0.6955 -0.6857 -0.6709
-0.6533 -0.6381 -0.6230 -0.6129 -0.6016 -0.5969
-0.5899 -0.5833 -0.5732 -0.5613 -0.5354 -0.4982
-0.4500 -0.3939 -0.3230 -0.2464 -0.1667 -0.0823
-0.0019 0.0715 0.1289 0.1768 0.2064 0.2209
0.2218 0.2127 0.1897 0.1635 0.1427 0.1254
0.1197 0.1339 0.1670 0.2275 0.3138 0.4298
0.5675 0.7244 0.8952 1.0679 1.2362 1.3884
1.5277 1.6408 1.7372 1.8113 1.8733 1.9276
1.9818 2.0315 2.0927 2.1636 2.2392 2.3271
2.4217 2.5219 2.6243 2.7232 2.8011 2.8720
2.9287 2.9684 2.9920 3.0018 3.0005 2.9895
2.9652 2.9400 2.9010 2.8568 2.7948 2.7191
2.6211 2.5096 2.3769 2.2338 2.0838 1.9162
1.7605 1.5907 1.4319 1.2661 1.1114 0.9478
0.7881 0.6239 0.4670 0.3028 0.1345 -0.0353
-0.2112 -0.3747 -0.5458 -0.6860 -0.8244 -0.9485
-1.0733 -1.1770 -1.2885 -1.3828 -1.4757 -1.5857
-1.6679 -1.7530 -1.8331 -1.9144 -1.9954 -2.0678
-2.1570 -2.2487 -2.3322 -2.4327 -2.5248 -2.6086
-2.6927 -2.7753 -2.8377 -2.8915 -2.9344 -2.9640
-2.9688 -2.9684 -2.9621 -2.9376 -2.9051 -2.8654
-2.8159 -2.7438 -2.6625 -2.5616 -2.4507 -2.3196
-2.1696 -2.0007 -1.7987 -1.5825 -1.3405 -1.0743
-0.8020 -0.5152 -0.2228 0.0810 0.3847 0.6803
0.9601 1.2270 1.4700 1.6833 1.8626 2.0007
2.1100 2.1781 2.2194 2.2313 2.2200 2.1970
2.1645 2.1204 2.0684 2.0107 1.9430 1.8633
1.7813 1.7057 1.6298 1.5633 1.5084 1.4568
1.4089 1.3591 1.3121 1.2469 1.1725 1.0975
1.0090 0.9113 0.8073 0.7065 0.6006 0.5083
0.4159 0.3334 0.2606 0.2026 0.1487 0.0996
0.0564 0.0110 -0.0319 -0.0760 -0.1147 -0.1510
-0.1841 -0.2159 -0.2433 -0.2723 -0.2966 -0.3227
-0.3448 -0.3766 -0.4062 -0.4453 -0.4740 -0.5039
-0.5364 -0.5502 -0.5546 -0.5445 -0.5338 -0.5001
-0.4582 -0.4087 -0.3586 -0.3000 -0.2546 -0.2216
-0.1922 -0.1787 -0.1841 -0.2023 -0.2291 -0.2635
-0.2981 -0.3378 -0.3750 -0.4090 -0.4355 -0.4604
-0.4881 -0.5165 -0.5499 -0.5965 -0.6523 -0.7207
-0.8064 -0.9050 -1.0267 -1.1697 -1.3330 -1.5214
-1.7294 -1.9550 -2.1951 -2.4466 -2.6965 -2.9483
-3.1887 -3.4191 -3.6390 -3.8401 -4.0231 -4.1842
-4.3301 -4.4495 -4.5655 -4.6660 -4.7643 -4.8658
-4.9713 -5.0819 -5.1913 -5.3113 -5.4242 -5.5401
-5.6501 -5.7497 -5.8373 -5.9148 -5.9753 -6.0216
-6.0604 -6.0865 -6.1023 -6.1095 -6.1136 -6.1035
-6.0963 -6.0843 -6.0528 -6.0204 -5.9718 -5.9104
-5.8297 -5.7336 -5.6318 -5.5162 -5.4024 -5.2915
-5.1947 -5.1084 -5.0378 -4.9805 -4.9316 -4.8891
-4.8453 -4.8040 -4.7536 -4.7003 -4.6364 -4.5595
-4.4652 -4.3603 -4.2390 -4.0896 -3.9390 -3.7685
-3.5858 -3.3957 -3.1928 -2.9899 -2.7696 -2.5506
-2.3328 -2.1000 -1.8743 -1.6557 -1.4272 -1.2044
-0.9800 -0.7617 -0.5285 -0.2871 -0.0662 0.1771
0.4144 0.6444 0.8744 1.1070 1.3458 1.5803
1.8267 2.0823 2.3429 2.6092 2.8906 3.1795
3.4764 3.7738 4.0745 4.3760 4.6558 4.9338
5.2051 5.4666 5.7206 5.9771 6.2336 6.4801
6.7350 6.9783 7.2300 7.4784 7.7254 7.9775
8.2142 8.4461 8.6648 8.8734 9.0530 9.2172
9.3637 9.4898 9.5997 9.6999 9.7929 9.8748
9.9552 10.0280 10.0960 10.1581 10.2240 10.2845
10.3362 10.3815 10.4178 10.4446 10.4499 10.4499
10.4402 10.4171 10.3885 10.3645 10.3409 10.3125
10.3021 10.2876 10.2637 10.2445 10.2123 10.1679
10.1090 10.0437 9.9634 9.8663 9.7582 9.6379
9.5039 9.3609 9.2147 9.0596 8.9109 8.7521
8.6084 8.4540 8.3024 8.1555 7.9977 7.8464
7.6816 7.5222 7.3447 7.1699 6.9798 6.7810
6.5743 6.3546 6.1256 5.8763 5.6217 5.3523
5.0847 4.8172 4.5547 4.3007 4.0543 3.8205
3.5952 3.3796 3.1578 2.9356 2.7097 2.4692
2.2203 1.9502 1.6597 1.3446 1.0194 0.6784
0.3302 -0.0170 -0.3564 -0.6933 -1.0138 -1.3097
-1.5948 -1.8498 -2.0902 -2.3117 -2.5178 -2.7056
-2.8862 -3.0541 -3.2120 -3.3721 -3.5246 -3.6746
-3.8337 -3.9967 -4.1612 -4.3395 -4.5330 -4.7397
-4.9464 -5.1721 -5.3961 -5.6227 -5.8644 -6.1026
-6.3437 -6.5866 -6.8264 -7.0574 -7.2777 -7.4834
-7.6731 -7.8490 -8.0009 -8.1329 -8.2479 -8.3399
-8.4124 -8.4635 -8.4988 -8.5117 -8.5038 -8.4735
-8.4275 -8.3617 -8.2760 -8.1789 -8.0674 -7.9486
-7.8291 -7.7103 -7.5871 -7.4664 -7.3401 -7.2106
-7.0779 -6.9386 -6.7981 -6.6563 -6.5170 -6.3786
-6.2400 -6.1102 -5.9835 -5.8625 -5.7509 -5.6444
-5.5439 -5.4465 -5.3514 -5.2590 -5.1733 -5.0930
-5.0123 -4.9395 -4.8705 -4.7990 -4.7240 -4.6480
-4.5614 -4.4728 -4.3789 -4.2768 -4.1703 -4.0543
-3.9343 -3.7969 -3.6453 -3.4814 -3.3025 -3.1128
-2.9205 -2.7248 -2.5285 -2.3376 -2.1513 -1.9651
-1.7798 -1.6018 -1.4281 -1.2659 -1.1174 -0.9807
-0.8612 -0.7566 -0.6737 -0.6088 -0.5682 -0.5584
-0.5672 -0.6054 -0.6608 -0.7374 -0.8316 -0.9384
-1.0629 -1.1956 -1.3393 -1.4915 -1.6449 -1.8041
-1.9626 -2.1217 -2.2815 -2.4403 -2.5975 -2.7510
-2.8953 -3.0277 -3.1446 -3.2391 -3.3135 -3.3557
-3.3727 -3.3567 -3.3119 -3.2353 -3.1345 -3.0072
-2.8597 -2.6940 -2.5137 -2.3250 -2.1258 -1.9226
-1.7149 -1.5088 -1.2967 -1.0906 -0.8839 -0.6845
-0.4891 -0.3117 -0.1399 0.0205 0.1692 0.3047
0.4232 0.5269 0.6104 0.6885 0.7506 0.8064
0.8565 0.9000 0.9305 0.9611 0.9841 0.9992
1.0115 1.0162 1.0153 1.0131 1.0008 0.9781
0.9482 0.9025 0.8376 0.7572 0.6592 0.5414
0.4074 0.2536 0.0879 -0.0939 -0.2802 -0.4752
-0.6744 -0.8767 -1.0749 -1.2690 -1.4540 -1.6320
-1.8006 -1.9607 -2.1211 -2.2682 -2.4182 -2.5588
-2.6965 -2.8285 -2.9549 -3.0753 -3.1805 -3.2732
-3.3412 -3.3929 -3.4200 -3.4288 -3.4203 -3.3897
-3.3510 -3.2968 -3.2476 -3.1947 -3.1506 -3.1194
-3.1049 -3.1036 -3.1156 -3.1531 -3.1919 -3.2498
-3.3116 -3.3784 -3.4439 -3.5092 -3.5656 -3.6147
-3.6604 -3.6967 -3.7313 -3.7597 -3.7855 -3.8025
-3.8205 -3.8218 -3.8180 -3.8051 -3.7827 -3.7597
-3.7313 -3.6982 -3.6510 -3.6047 -3.5479 -3.4840
-3.4090 -3.3214 -3.2215 -3.1055 -2.9839 -2.8493
-2.7078 -2.5585 -2.3996 -2.2333 -2.0546 -1.8646
-1.6651 -1.4502 -1.2224 -0.9898 -0.7478 -0.5029
-0.2546 -0.0029 0.2521 0.5146 0.7843 1.0629
1.3493 1.6405 1.9424 2.2518 2.5559 2.8641
3.1635 3.4562 3.7382 4.0070 4.2629 4.5002
4.7164 4.9149 5.0895 5.2404 5.3756 5.4956
5.6018 5.6951 5.7887 5.8735 5.9645 6.0534
6.1482 6.2425 6.3480 6.4561 6.5790 6.7022
6.8421 6.9798 7.1257 7.2761 7.4046 7.5644
7.6851 7.8136 7.9315 8.0500 8.1518 8.2362
8.3345 8.4092 8.4738 8.5400 8.5948 8.6295
8.6556 8.6575 8.6459 8.5999 8.5337 8.4477
8.3386 8.2164 8.0796 7.9350 7.7878 7.6394
7.4957 7.3476 7.2089 7.0860 6.9587 6.8428
6.7432 6.6546 6.5759 6.5024 6.4419 6.3799
6.3228 6.2664 6.2012 6.1334 6.0581 5.9838
5.8971 5.8136 5.7320 5.6513 5.5691 5.4849
5.4046 5.3264 5.2511 5.1789 5.1058 5.0261
4.9486 4.8679 4.7844 4.6968 4.6114 4.5235
4.4299 4.3338 4.2333 4.1265 4.0209 3.9112
3.8050 3.7036 3.6030 3.5120 3.4256 3.3431
3.2674 3.1978 3.1319 3.0692 3.0094 2.9574
2.9057 2.8587 2.8118 2.7705 2.7324 2.6996
2.6716 2.6404 2.6085 2.5739 2.5275 2.4755
2.4109 2.3319 2.2392 2.1299 2.0145 1.8825
1.7397 1.5847 1.4300 1.2749 1.1221 0.9705
0.8234 0.6813 0.5429 0.4103 0.2757 0.1506
0.0214 -0.1097 -0.2480 -0.3961 -0.5518 -0.7172
-0.8883 -1.0661 -1.2425 -1.4203 -1.5989 -1.7691
-1.9348 -2.0952 -2.2452 -2.3782 -2.5002 -2.6054
-2.6908 -2.7683 -2.8301 -2.8840 -2.9338 -2.9873
-3.0371 -3.0857 -3.1342 -3.1720 -3.2057 -3.2284
-3.2420 -3.2467 -3.2432 -3.2268 -3.2117 -3.1956
-3.1758 -3.1581 -3.1414 -3.1389 -3.1310 -3.1276
-3.1225 -3.1153 -3.1036 -3.0834 -3.0730 -3.0504
-3.0434 -3.0324 -3.0381 -3.0513 -3.0790 -3.1241
-3.1726 -3.2388 -3.3031 -3.3787 -3.4468 -3.5234
-3.5731 -3.6220 -3.6806 -3.7235 -3.7641 -3.8038
-3.8397 -3.8687 -3.9046 -3.9399 -3.9793 -4.0238
-4.0754 -4.1325 -4.1876 -4.2538 -4.3156 -4.3767
-4.4400 -4.4958 -4.5547 -4.6115 -4.6770 -4.7400
-4.8166 -4.8941 -4.9830 -5.0753 -5.1714 -5.2713
-5.3696 -5.4761 -5.5801 -5.6898 -5.7922 -5.8915
-5.9806 -6.0673 -6.1420 -6.2069 -6.2630 -6.2989
-6.3207 -6.3304 -6.3169 -6.2869 -6.2419 -6.1852
-6.1228 -6.0578 -5.9980 -5.9406 -5.8823 -5.8347
-5.7950 -5.7563 -5.7301 -5.6936 -5.6658 -5.6230
-5.5678 -5.5013 -5.4175 -5.3208 -5.2048 -5.0816
-4.9489 -4.8075 -4.6565 -4.5163 -4.3657 -4.2169
-4.0710 -3.9327 -3.7855 -3.6444 -3.5054 -3.3576
-3.2114 -3.0642 -2.9215 -2.7658 -2.6224 -2.4727
-2.3253 -2.1772 -2.0354 -1.8857 -1.7410 -1.5967
-1.4451 -1.2952 -1.1354 -0.9775 -0.8073 -0.6369
-0.4648 -0.2902 -0.1144 0.0658 0.2533 0.4411
0.6368 0.8363 1.0399 1.2434 1.4489 1.6556
1.8667 2.0791 2.2931 2.5033 2.7028 2.9029
3.0859 3.2580 3.4241 3.5816 3.7310 3.8766
4.0152 4.1605 4.3051 4.4482 4.5862 4.7176
4.8506 4.9735 5.0923 5.2001 5.2996 5.3920
5.4711 5.5470 5.6163 5.6743 5.7339 5.7818
5.8312 5.8795 5.9084 5.9381 5.9604 5.9753
5.9803 5.9875 5.9847 5.9768 5.9693 5.9545
5.9431 5.9346 5.9270 5.9229 5.9274 5.9299
5.9311 5.9217 5.8999 5.8602 5.7890 5.6957
5.5751 5.4263 5.2517 5.0491 4.8430 4.6092
4.3763 4.1428 3.9166 3.6866 3.4748 3.2652
3.0699 2.8679 2.6905 2.5370 2.3085 2.1535
1.9918 1.8147 1.6399 1.4836 1.3377 1.1747
1.0452 0.9236 0.7906 0.6724 0.5744 0.4676
0.3558 0.2628 0.1670 0.0450 -0.0416 -0.1352
-0.2294 -0.3246 -0.4116 -0.5007 -0.5899 -0.6649
-0.7333 -0.7963 -0.8420 -0.8757 -0.9050 -0.9183
-0.9321 -0.9378 -0.9432 -0.9451 -0.9447 -0.9413
-0.9372 -0.9306 -0.9230 -0.9189 -0.9164 -0.9129
-0.9117 -0.9129 -0.9151 -0.9180 -0.9258 -0.9306
-0.9435 -0.9570 -0.9747 -0.9885 -1.0081 -1.0279
-1.0427 -1.0730 -1.1007 -1.1373 -1.1754 -1.2186
-1.2564 -1.2980 -1.3352 -1.3632 -1.3906 -1.4064
-1.4187 -1.4228 -1.4218 -1.4158 -1.4105 -1.4061
-1.4017 -1.4004 -1.4017 -1.4061 -1.4095 -1.4174
-1.4218 -1.4313 -1.4385 -1.4439 -1.4489 -1.4461
-1.4429 -1.4291 -1.4196 -1.4032 -1.3859 -1.3736
-1.3629 -1.3516 -1.3538 -1.3626 -1.3752 -1.4045
-1.4417 -1.4934 -1.5532 -1.6285 -1.7035 -1.7861
-1.8706 -1.9481 -2.0275 -2.1034 -2.1712 -2.2358
-2.2991 -2.3602 -2.4230 -2.4898 -2.5607 -2.6297
-2.7097 -2.7888 -2.8663 -2.9508 -3.0267 -3.0929
-3.1562 -3.2095 -3.2555 -3.2977 -3.3450 -3.3850
-3.4235 -3.4673 -3.4972 -3.5334 -3.5681 -3.5996
-3.6321 -3.6686 -3.7093 -3.7528 -3.8057 -3.8706
-3.9421 -4.0244 -4.1189 -4.2116 -4.3124 -4.4107
-4.5062 -4.5988 -4.6861 -4.7671 -4.8368 -4.9001
-4.9530 -4.9953 -5.0296 -5.0492 -5.0621 -5.0668
-5.0630 -5.0573 -5.0476 -5.0381 -5.0306 -5.0230
-5.0157 -5.0135 -5.0091 -5.0123 -5.0110 -5.0135
-5.0180 -5.0252 -5.0334 -5.0441 -5.0611 -5.0753
-5.0955 -5.1147 -5.1314 -5.1459 -5.1563 -5.1616
-5.1626 -5.1591 -5.1566 -5.1415 -5.1191 -5.0895
-5.0435 -4.9896 -4.9237 -4.8418 -4.7517 -4.6486
-4.5393 -4.4151 -4.2995 -4.1700 -4.0269 -3.8924
-3.7499 -3.5974 -3.4392 -3.2807 -3.1181 -2.9552
-2.7866 -2.6240 -2.4526 -2.2878 -2.1214 -1.9490
-1.7763 -1.6027 -1.4240 -1.2526 -1.0664 -0.8754
-0.6958 -0.5061 -0.3117 -0.1150 0.0769 0.2678
0.4547 0.6305 0.7916 0.9570 1.1042 1.2463
1.3799 1.5078 1.6320 1.7552 1.8816 2.0111
2.1422 2.2758 2.4204 2.5654 2.7169 2.8685
3.0283 3.1931 3.3554 3.5249 3.7045 3.8819
4.0619 4.2390 4.4132 4.5768 4.7252 4.8594
4.9738 5.0699 5.1585 5.2319 5.2908 5.3393
5.3734 5.4002 5.4131 5.4178 5.4178 5.4140
5.4043 5.3983 5.3913 5.3860 5.3850 5.3860
5.3882 5.3901 5.3913 5.3901 5.3882 5.3841
5.3787 5.3709 5.3690 5.3709 5.3693 5.3687
5.3699 5.3614 5.3488 5.3242 5.2905 5.2470
5.1998 5.1478 5.0926 5.0343 4.9763 4.9215
4.8629 4.8194 4.7747 4.7384 4.7047 4.6808
4.6524 4.6231 4.6023 4.5774 4.5525 4.5311
4.5144 4.4911 4.4794 4.4674 4.4643 4.4636
4.4721 4.4870 4.5030 4.5317 4.5616 4.5931
4.6354 4.6782 4.7236 4.7712 4.8159 4.8623
4.9035 4.9448 4.9789 5.0107 5.0365 5.0586
5.0800 5.1005 5.1178 5.1380 5.1484 5.1556
5.1559 5.1433 5.1282 5.0986 5.0630 5.0173
4.9618 4.8998 4.8320 4.7576 4.6811 4.6007
4.5229 4.4435 4.3663 4.2941 4.2238 4.1608
4.1044 4.0568 4.0152 3.9784 3.9446 3.9071
3.8611 3.8098 3.7401 3.6579 3.5630 3.4502
3.3305 3.2019 3.0667 2.9315 2.8001 2.6703
2.5420 2.4188 2.2963 2.1793 2.0640 1.9509
1.8441 1.7366 1.6358 1.5362 1.4404 1.3443
1.2475 1.1540 1.0509 0.9466 0.8436 0.7314
0.6135 0.4909 0.3605 0.2269 0.0923 -0.0460
-0.1828 -0.3230 -0.4604 -0.6006 -0.7377 -0.8719
-1.0071 -1.1313 -1.2532 -1.3676 -1.4735 -1.5696
-1.6582 -1.7360 -1.8053 -1.8680 -1.9254 -1.9755
-2.0228 -2.0669 -2.1082 -2.1557 -2.2052 -2.2644
-2.3388 -2.4220 -2.5165 -2.6218 -2.7346 -2.8553
-2.9829 -3.1175 -3.2442 -3.3733 -3.4969 -3.6046
-3.7042 -3.7899 -3.8583 -3.9235 -3.9815 -4.0354
-4.0909 -4.1514 -4.2188 -4.2891 -4.3704 -4.4526
-4.5421 -4.6332 -4.7233 -4.8059 -4.8872 -4.9597
-5.0195 -5.0722 -5.1185 -5.1490 -5.1752 -5.2017
-5.2162 -5.2363 -5.2571 -5.2826 -5.3123 -5.3469
-5.3832 -5.4210 -5.4613 -5.5023 -5.5433 -5.5874
-5.6299 -5.6731 -5.7210 -5.7689 -5.8180 -5.8659
-5.9173 -5.9696 -6.0260 -6.0840 -6.1448 -6.2041
-6.2671 -6.3279 -6.3884 -6.4467 -6.5000 -6.5475
-6.5819 -6.6096 -6.6251 -6.6298 -6.6254 -6.6153
-6.5970 -6.5756 -6.5538 -6.5308 -6.5050 -6.4782
-6.4448 -6.4054 -6.3569 -6.2995 -6.2346 -6.1540
-6.0619 -5.9561 -5.8357 -5.7011 -5.5543 -5.3986
-5.2351 -5.0636 -4.8891 -4.7069 -4.5182 -4.3266
-4.1356 -3.9456 -3.7543 -3.5653 -3.3790 -3.1950
-3.0176 -2.8417 -2.6706 -2.5030 -2.3335 -2.1709
-2.0038 -1.8435 -1.6834 -1.5274 -1.3783 -1.2280
-1.0815 -0.9369 -0.7872 -0.6378 -0.4888 -0.3296
-0.1727 -0.0151 0.1345 0.2833 0.4219 0.5533
0.6806 0.7909 0.8962 0.9895 1.0774 1.1603
1.2403 1.3200 1.3963 1.4735 1.5523 1.6361
1.7215 1.8097 1.9058 2.0016 2.1043 2.2064
2.3161 2.4242 2.5294 2.6366 2.7412 2.8556
2.9757 3.1048 3.2337 3.3743 3.5120 3.6535
3.7899 3.9204 4.0455 4.1618 4.2724 4.3707
4.4671 4.5418 4.6193 4.6770 4.7305 4.7800
4.8232 4.8708 4.9067 4.9467 4.9751 5.0063
5.0343 5.0661 5.0983 5.1370 5.1777 5.2117
5.2533 5.2858 5.3201 5.3434 5.3646 5.3769
5.3797 5.3844 5.3787 5.3750 5.3693 5.3696
5.3709 5.3787 5.3898 5.4036 5.4213 5.4342
5.4515 5.4619 5.4755 5.4843 5.4957 5.5064
5.5120 5.5190 5.5202 5.5228 5.5152 5.5083
5.4944 5.4723 5.4405 5.3992 5.3479 5.2870
5.2218 5.1490 5.0759 4.9952 4.9168 4.8311
4.7466 4.6618 4.5758 4.4948 4.4132 4.3329
4.2553 4.1857 4.1104 4.0430 3.9777 3.9156
3.8539 3.7915 3.7329 3.6673 3.6037 3.5328
3.4568 3.3812 3.3021 3.2211 3.1376 3.0497
2.9605 2.8673 2.7743 2.6712 2.5723 2.4762
2.3804 2.2956 2.2216 2.1548 2.1006 2.0653
2.0347 2.0186 2.0057 2.0004 1.9919 1.9837
1.9742 1.9622 1.9458 1.9222 1.8964 1.8535
1.8050 1.7420 1.6673 1.5762 1.4760 1.3629
1.2406 1.1155 0.9873 0.8587 0.7314 0.6079
0.4840 0.3636 0.2474 0.1355 0.0258 -0.0772
-0.1809 -0.2795 -0.3709 -0.4598 -0.5445 -0.6195
-0.6914 -0.7604 -0.8234 -0.8808 -0.9369 -0.9936
-1.0465 -1.1039 -1.1650 -1.2258 -1.2920 -1.3585
-1.4250 -1.4921 -1.5561 -1.6188 -1.6815 -1.7521
-1.8236 -1.9040 -1.9953 -2.0886 -2.1926 -2.3101
-2.4318 -2.5673 -2.7021 -2.8424 -2.9980 -3.1477
-3.3169 -3.4868 -3.6629 -3.8476 -4.0269 -4.2172
-4.4003 -4.5856 -4.7611 -4.9272 -5.0816 -5.2130
-5.3384 -5.4427 -5.5332 -5.6085 -5.6743 -5.7276
-5.7667 -5.7979 -5.8171 -5.8325 -5.8373 -5.8483
-5.8584 -5.8735 -5.8946 -5.9271 -5.9721 -6.0203
-6.0812 -6.1413 -6.2091 -6.2705 -6.3351 -6.4019
-6.4653 -6.5390 -6.6121 -6.6982 -6.7798 -6.8686
-6.9625 -7.0523 -7.1463 -7.2383 -7.3268 -7.4059
-7.4809 -7.5439 -7.6029 -7.6498 -7.6905 -7.7176
-7.7314 -7.7418 -7.7302 -7.7132 -7.6816 -7.6369
-7.5874 -7.5244 -7.4570 -7.3864 -7.3117 -7.2376
-7.1623 -7.0864 -7.0114 -6.9351 -6.8630 -6.7873
-6.7145 -6.6430 -6.5658 -6.4902 -6.4057 -6.3269
-6.2387 -6.1499 -6.0610 -5.9677 -5.8823 -5.7912
-5.7021 -5.6101 -5.5105 -5.4049 -5.2930 -5.1689
-5.0403 -4.8995 -4.7479 -4.5853 -4.4183 -4.2450
-4.0616 -3.8778 -3.6847 -3.4874 -3.2861 -3.0724
-2.8556 -2.6325 -2.3981 -2.1627 -1.9181 -1.6717
-1.4256 -1.1826 -0.9454 -0.7150 -0.4900 -0.2691
-0.0514 0.1572 0.3668 0.5786 0.7827 0.9907
1.1927 1.3903 1.5772 1.7584 1.9326 2.0977
2.2584 2.4059 2.5417 2.6672 2.7822 2.8881
2.9892 3.0869 3.1830 3.2804 3.3809 3.4843
3.5848 3.6881 3.7865 3.8807 3.9648 4.0426
4.1158 4.1778 4.2409 4.2954 4.3470 4.3972
4.4438 4.4907 4.5361 4.5828 4.6313 4.6798
4.7372 4.7983 4.8730 4.9574 5.0520 5.1525
5.2552 5.3652 5.4752 5.5905 5.7005 5.8042
5.8999 5.9879 6.0591 6.1256 6.1795 6.2214
6.2623 6.2954 6.3282 6.3619 6.3988 6.4394
6.4807 6.5327 6.5812 6.6266 6.6745 6.7060
6.7344 6.7479 6.7552 6.7489 6.7306 6.7013
6.6619 6.6197 6.5724 6.5251 6.4750 6.4246
6.3654 6.3093 6.2437 6.1744 6.0937 6.0090
5.9116 5.8016 5.6869 5.5580 5.4266 5.2886
5.1490 5.0028 4.8556 4.7063 4.5544 4.4050
4.2566 4.1110 3.9711 3.8337 3.7026 3.5791
3.4613 3.3465 3.2419 3.1348 3.0308 2.9353
2.8376 2.7428 2.6520 2.5616 2.4699 2.3832
2.2959 2.2143 2.1340 2.0609 1.9862 1.9134
1.8381 1.7587 1.6802 1.5998 1.5214 1.4439
1.3701 1.2942 1.2258 1.1577 1.0944 1.0282
0.9646 0.8971 0.8209 0.7452 0.6570 0.5666
0.4765 0.3873 0.3035 0.2278 0.1594 0.1030
0.0577 0.0224 -0.0013 -0.0120 -0.0091 -0.0006
0.0173 0.0422 0.0763 0.1185 0.1720 0.2341
0.3047 0.3857 0.4752 0.5722 0.6743 0.7827
0.8893 1.0008 1.1108 1.2233 1.3317 1.4350
1.5302 1.6169 1.6938 1.7577 1.8119 1.8538
1.8838 1.8980 1.9030 1.8929 1.8718 1.8412
1.8044 1.7599 1.7120 1.6616 1.6099 1.5570
1.5066 1.4546 1.4035 1.3600 1.3207 1.2847
1.2498 1.2201 1.1889 1.1659 1.1423 1.1278
1.1180 1.1136 1.1206 1.1322 1.1505 1.1776
1.2157 1.2561 1.3027 1.3478 1.3950 1.4372
1.4770 1.5100 1.5353 1.5567 1.5668 1.5768
1.5797 1.5831 1.5828 1.5838 1.5869 1.5816
1.5791 1.5687 1.5608 1.5494 1.5375 1.5299
1.5208 1.5157 1.5132 1.5220 1.5340 1.5551
1.5819 1.6121 1.6468 1.6818 1.7231 1.7609
1.7984 1.8305 1.8598 1.8816 1.8967 1.9084
1.9109 1.9099 1.8986 1.8822 1.8545 1.8233
1.7795 1.7306 1.6780 1.6266 1.5819 1.5359
1.5066 1.4738 1.4514 1.4328 1.4155 1.4032
1.3922 1.3786 1.3585 1.3320 1.2932 1.2450
1.1833 1.1161 1.0361 0.9517 0.8606 0.7623
0.6668 0.5656 0.4670 0.3706 0.2726 0.1790
0.0829 -0.0101 -0.1059 -0.2051 -0.3076 -0.4188
-0.5329 -0.6548 -0.7869 -0.9324 -1.0878 -1.2592
-1.4373 -1.6222 -1.8113 -2.0032 -2.1907 -2.3788
-2.5572 -2.7267 -2.8944 -3.0488 -3.2019 -3.3437
-3.4795 -3.6075 -3.7335 -3.8504 -3.9718 -4.0883
-4.2125 -4.3414 -4.4731 -4.6266 -4.7835 -4.9568
-5.1320 -5.3151 -5.4982 -5.6772 -5.8574 -6.0285
-6.1905 -6.3443 -6.4886 -6.6165 -6.7350 -6.8406
-6.9376 -7.0224 -7.0974 -7.1680 -7.2238 -7.2836
-7.3287 -7.3694 -7.4043 -7.4333 -7.4570 -7.4705
-7.4815 -7.4803 -7.4787 -7.4705 -7.4648 -7.4579
-7.4554 -7.4592 -7.4639 -7.4781 -7.4982 -7.5168
-7.5345 -7.5505 -7.5594 -7.5600 -7.5540 -7.5373
-7.5162 -7.4882 -7.4557 -7.4248 -7.3933 -7.3643
-7.3334 -7.3095 -7.2830 -7.2594 -7.2323 -7.2023
-7.1693 -7.1277 -7.0782 -7.0189 -6.9525 -6.8771
-6.7984 -6.7120 -6.6260 -6.5333 -6.4344 -6.3373
-6.2327 -6.1250 -6.0106 -5.8886 -5.7613 -5.6331
-5.4988 -5.3627 -5.2297 -5.0907 -4.9603 -4.8245
-4.6908 -4.5594 -4.4280 -4.2976 -4.1671 -4.0370
-3.9018 -3.7669 -3.6251 -3.4817 -3.3340 -3.1874
-3.0412 -2.8991 -2.7554 -2.6126 -2.4775 -2.3435
-2.2055 -2.0754 -1.9506 -1.8157 -1.6840 -1.5542
-1.4212 -1.2841 -1.1502 -1.0147 -0.8817 -0.7500
-0.6208 -0.4951 -0.3690 -0.2382 -0.1112 0.0195
0.1579 0.2965 0.4386 0.5883 0.7459 0.9006
1.0610 1.2157 1.3758 1.5242 1.6645 1.8018
1.9320 2.0568 2.1702 2.2887 2.3971 2.5008
2.5991 2.6946 2.7828 2.8635 2.9391 3.0147
3.0765 3.1266 3.1789 3.2123 3.2422 3.2640
3.2757 3.2854 3.2804 3.2665 3.2504 3.2189
3.1874 3.1515 3.1124 3.0762 3.0330 2.9930
2.9448 2.8940 2.8420 2.7838 2.7201 2.6574
2.5818 2.5030 2.4192 2.3334 2.2436 2.1519
2.0587 1.9607 1.8664 1.7741 1.6796 1.5961
1.5167 1.4391 1.3793 1.3216 1.2753 1.2359
1.2066 1.1754 1.1543 1.1294 1.1139 1.0916
1.0846 1.0736 1.0711 1.0777 1.0903 1.1095
1.1310 1.1599 1.1852 1.2239 1.2239 1.2954
1.3213 1.3358 1.3591 1.3802 1.4083 1.4193
1.4470 1.4565 1.4722 1.4807 1.4968 1.4902
1.4899 1.4864 1.4817 1.4681 1.4640 1.4562
1.4543 1.4574 1.4640 1.4744 1.4861 1.5100
1.5353 1.5721 1.6153 1.6726 1.7303 1.8100
1.8939 1.9887 2.0889 2.1929 2.2966 2.3943
2.4894 2.5745 2.6527 2.7210 2.7875 2.8395
2.8903 2.9306 2.9634 2.9927 3.0132 3.0330
3.0491 3.0692 3.0866 3.1086 3.1301 3.1499
3.1704 3.1827 3.1953 3.2022 3.2057 3.2010
3.1906 3.1713 3.1442 3.1105 3.0737 3.0343
2.9968 2.9653 2.9334 2.9130 2.8972 2.8877
2.8833 2.8833 2.8871 2.8925 2.8981 2.9063
2.9130 2.9148 2.9193 2.9205 2.9224 2.9240
2.9290 2.9378 2.9479 2.9583 2.9766 2.9955
3.0195 3.0459 3.0715 3.0976 3.1200 3.1367
3.1502 3.1600 3.1622 3.1644 3.1578 3.1540
3.1417 3.1335 3.1272 3.1184 3.1149 3.1118
3.1061 3.1008 3.0973 3.0894 3.0815 3.0683
3.0617 3.0494 3.0431 3.0412 3.0415 3.0503
3.0633 3.0815 3.1061 3.1370 3.1748 3.2205
3.2703 3.3245 3.3784 3.4345 3.4821 3.5274
3.5611 3.5860 3.6015 3.6062 3.6050 3.5917
3.5693 3.5404 3.5019 3.4553 3.4014 3.3431
3.2785 3.2092 3.1357 3.0585 2.9816 2.9022
2.8269 2.7459 2.6675 2.5827 2.4992 2.4062
2.3104 2.2121 2.1110 2.0146 1.9137 1.8211
1.7246 1.6307 1.5299 1.4297 1.3207 1.2085
1.0887 0.9558 0.8190 0.6712 0.5272 0.3775
0.2385 0.0983 -0.0350 -0.1654 -0.2953 -0.4175
-0.5429 -0.6580 -0.7783 -0.8893 -0.9996 -1.1048
-1.2066 -1.3099 -1.4161 -1.5271 -1.6345 -1.7454
-1.8469 -1.9468 -2.0379 -2.1217 -2.2014 -2.2761
-2.3527 -2.4255 -2.5014 -2.5751 -2.6486 -2.7245
-2.7945 -2.8682 -2.9356 -3.0015 -3.0611 -3.1108
-3.1515 -3.1805 -3.1981 -3.2038 -3.2041 -3.1937
-3.1767 -3.1468 -3.1118 -3.0595 -2.9983 -2.9322
-2.8556 -2.7797 -2.6955 -2.6158 -2.5301 -2.4472
-2.3631 -2.2761 -2.1860 -2.0914 -1.9903 -1.8838
-1.7785 -1.6663 -1.5592 -1.4508 -1.3500 -1.2507
-1.1625 -1.0746 -0.9888 -0.9116 -0.8329 -0.7638
-0.6967 -0.6353 -0.5729 -0.5095 -0.4468 -0.3794
-0.3066 -0.2373 -0.1582 -0.0791 -0.0038 0.0725
0.1428 0.2023 0.2537 0.2994 0.3296 0.3517
0.3668 0.3718 0.3703 0.3618 0.3488 0.3328
0.3110 0.2890 0.2597 0.2285 0.1963 0.1623
0.1223 0.0791 0.0350 -0.0142 -0.0671 -0.1232
-0.1818 -0.2414 -0.3009 -0.3614 -0.4175 -0.4755
-0.5316 -0.5871 -0.6485 -0.7131 -0.7831 -0.8543
-0.9296 -1.0077 -1.0824 -1.1599 -1.2365 -1.3125
-1.3878 -1.4621 -1.5390 -1.6194 -1.7042 -1.7965
-1.8904 -1.9900 -2.0905 -2.1844 -2.2786 -2.3653
-2.4485 -2.5276 -2.6016 -2.6738 -2.7412 -2.8102
-2.8783 -2.9489 -3.0213 -3.0926 -3.1638 -3.2359
-3.3046 -3.3655 -3.4285 -3.4764 -3.5208 -3.5608
-3.5936 -3.6223 -3.6472 -3.6689 -3.6837 -3.6979
-3.7074 -3.7162 -3.7193 -3.7225 -3.7168 -3.7058
-3.6847 -3.6569 -3.6220 -3.5851 -3.5495 -3.5148
-3.4880 -3.4631 -3.4468 -3.4275 -3.4127 -3.3960
-3.3768 -3.3519 -3.3157 -3.2693 -3.2101 -3.1414
-3.0664 -2.9813 -2.8962 -2.8071 -2.7195 -2.6388
-2.5663 -2.5008 -2.4415 -2.3911 -2.3385 -2.2922
-2.2417 -2.1904 -2.1318 -2.0710 -2.0048 -1.9380
-1.8674 -1.8012 -1.7394 -1.6799 -1.6333 -1.5825
-1.5453 -1.5047 -1.4672 -1.4344 -1.4001 -1.3698
-1.3386 -1.3178 -1.2983 -1.2891 -1.2901 -1.2939
-1.3049 -1.3197 -1.3355 -1.3506 -1.3651 -1.3660
-1.3670 -1.3594 -1.3427 -1.3307 -1.3188 -1.3251
-1.3333 -1.3566 -1.3938 -1.4429 -1.4981 -1.5592
-1.6314 -1.7038 -1.7795 -1.8545 -1.9323 -2.0070
-2.0861 -2.1721 -2.2594 -2.3420 -2.4337 -2.5216
-2.6095 -2.6961 -2.7746 -2.8547 -2.9230 -2.9813
-3.0368 -3.0847 -3.1193 -3.1477 -3.1663 -3.1843
-3.1915 -3.1972 -3.2035 -3.1962 -3.1858 -3.1691
-3.1490 -3.1238 -3.0919 -3.0655 -3.0327 -2.9961
-2.9590 -2.9136 -2.8654 -2.8127 -2.7522 -2.6895
-2.6240 -2.5509 -2.4853 -2.4125 -2.3432 -2.2780
-2.2140 -2.1589 -2.1075 -2.0606 -2.0127 -1.9663
-1.9156 -1.8655 -1.8126 -1.7612 -1.7067 -1.6477
-1.5854 -1.5217 -1.4565 -1.3931 -1.3355 -1.2765
-1.2227 -1.1703 -1.1193 -1.0730 -1.0276 -0.9825
-0.9372 -0.8902 -0.8439 -0.7922 -0.7456 -0.6907
-0.6334 -0.5745 -0.5121 -0.4478 -0.3778 -0.3113
-0.2395 -0.1661 -0.0923 -0.0183 0.0646 0.1443
0.2294 0.3148 0.3952 0.4724 0.5470 0.6161
0.6791 0.7374 0.7881 0.8351 0.8745 0.9129
0.9469 0.9829 1.0182 1.0541 1.0887 1.1325
1.1785 1.2287 1.2917 1.3560 1.4278 1.5078
1.5939 1.6928 1.7952 1.9027 2.0123 2.1192
2.2244 2.3253 2.4267 2.5219 2.6161 2.7100
2.8017 2.8931 2.9902 3.0945 3.2041 3.3261
3.4591 3.5987 3.7471 3.8986 4.0521 4.2056
4.3546 4.4952 4.6363 4.7677 4.8976 5.0290
5.1626 5.3009 5.4393 5.5886 5.7295 5.8738
6.0178 6.1558 6.2954 6.4303 6.5604 6.6922
6.8176 6.9408 7.0602 7.1746 7.2846 7.3911
7.4957 7.6019 7.7059 7.8130 7.9259 8.0333
8.1512 8.2637 8.3780 8.4868 8.5895 8.6806
8.7628 8.8318 8.8841 8.9320 8.9594 8.9761
8.9856 8.9862 8.9806 8.9749 8.9629 8.9506
8.9364 8.9229 8.9052 8.8939 8.8810 8.8599
8.8410 8.8129 8.7754 8.7354 8.6875 8.6314
8.5703 8.4975 8.4200 8.3286 8.2353 8.1307
8.0270 7.9249 7.8200 7.7141 7.6057 7.4882
7.3656 7.2414 7.1088 6.9843 6.8519 6.7202
6.5891 6.4574 6.3254 6.1911 6.0610 5.9286
5.7982 5.6762 5.5470 5.4241 5.3016 5.1796
5.0633 4.9458 4.8333 4.7161 4.5947 4.4655
4.3231 4.1741 4.0162 3.8530 3.6847 3.5123
3.3387 3.1616 2.9864 2.8115 2.6388 2.4620
2.2925 2.1151 1.9418 1.7719 1.6002 1.4332
1.2643 1.0988 0.9362 0.7777 0.6239 0.4768
0.3340 0.1988 0.0652 -0.0561 -0.1743 -0.2858
-0.3882 -0.4859 -0.5763 -0.6554 -0.7330 -0.8017
-0.8637 -0.9239 -0.9756 -1.0226 -1.0604 -1.0935
-1.1127 -1.1256 -1.1234 -1.1026 -1.0727 -1.0270
-0.9721 -0.9170 -0.8565 -0.8013 -0.7500 -0.7008
-0.6611 -0.6261 -0.6003 -0.5760 -0.5568 -0.5401
-0.5215 -0.5108 -0.5045 -0.5048 -0.5243 -0.5540
-0.6003 -0.6671 -0.7462 -0.8379 -0.9362 -1.0468
-1.1562 -1.2693 -1.3878 -1.5009 -1.6153 -1.7287
-1.8378 -1.9414 -2.0650 -2.1797 -2.2915 -2.4144
-2.5424 -2.6716 -2.8017 -2.9410 -3.0686 -3.2000
-3.3289 -3.4606 -3.5860 -3.7193 -3.8476 -3.9787
-4.1233 -4.2557 -4.3946 -4.5390 -4.6849 -4.8254
-4.9678 -5.1008 -5.2212 -5.3337 -5.4342 -5.5212
-5.5946 -5.6633 -5.7241 -5.7764 -5.8316 -5.8845
-5.9428 -6.0036 -6.0723 -6.1432 -6.2144 -6.2875
-6.3537 -6.4180 -6.4713 -6.5198 -6.5576 -6.5945
-6.6276 -6.6572 -6.6877 -6.7174 -6.7492 -6.7798
-6.8116 -6.8403 -6.8680 -6.8907 -6.9077 -6.9181
-6.9200 -6.9146 -6.8973 -6.8774 -6.8554 -6.8362
-6.8220 -6.8081 -6.8021 -6.7955 -6.7952 -6.7939
-6.7936 -6.7980 -6.8034 -6.8138 -6.8283 -6.8481
-6.8689 -6.8967 -6.9178 -6.9465 -6.9707 -6.9921
-7.0136 -7.0262 -7.0382 -7.0382 -7.0394 -7.0315
-7.0218 -7.0088 -6.9884 -6.9625 -6.9266 -6.8828
-6.8283 -6.7672 -6.6963 -6.6222 -6.5400 -6.4590
-6.3755 -6.2935 -6.2198 -6.1432 -6.0789 -6.0124
-5.9557 -5.9031 -5.8489 -5.8019 -5.7481 -5.6948
-5.6343 -5.5703 -5.5001 -5.4232 -5.3400 -5.2524
-5.1528 -5.0554 -4.9524 -4.8377 -4.7290 -4.6105
-4.4977 -4.3798 -4.2705 -4.1718 -4.0735 -3.9900
-3.9103 -3.8366 -3.7625 -3.6847 -3.6021 -3.5101
-3.4111 -3.3075 -3.2019 -3.0900 -2.9829 -2.8786
-2.7733 -2.6649 -2.5616 -2.4617 -2.3530 -2.2499
-2.1412 -2.0325 -1.9165 -1.8034 -1.6906 -1.5803
-1.4735 -1.3616 -1.2646 -1.1650 -1.0745 -0.9920
-0.9173 -0.8483 -0.7827 -0.7273 -0.6816 -0.6372
-0.5990 -0.5767 -0.5505 -0.5303 -0.5099 -0.4919
-0.4673 -0.4386 -0.4112 -0.3781 -0.3438 -0.3107
-0.2814 -0.2511 -0.2196 -0.1875 -0.1582 -0.1245
-0.0989 -0.0718 -0.0561 -0.0432 -0.0334 -0.0328
-0.0318 -0.0444 -0.0627 -0.0923 -0.1276 -0.1657
-0.2067 -0.2477 -0.2852 -0.3261 -0.3561 -0.3803
-0.3983 -0.4018 -0.3939 -0.3756 -0.3536 -0.3202
-0.2820 -0.2511 -0.2146 -0.1824 -0.1629 -0.1396
-0.1257 -0.1081 -0.0907 -0.0665 -0.0397 -0.0066
0.0290 0.0684 0.1138 0.1554 0.2004 0.2351
0.2698 0.2909 0.3032 0.3032 0.2978 0.2792
0.2556 0.2323 0.2023 0.1815 0.1560 0.1374
0.1201 0.1075 0.1021 0.1027 0.1065 0.1141
0.1210 0.1251 0.1368 0.1453 0.1541 0.1670
0.1821 0.1973 0.2222 0.2524 0.2839 0.3233
0.3674 0.4157 0.4705 0.5272 0.5905 0.6545
0.7229 0.7954 0.8641 0.9422 1.0150 1.0922
1.1710 1.2548 1.3364 1.4231 1.5261 1.6266
1.7398 1.8573 1.9730 2.0952 2.2219 2.3407
2.4671 2.5906 2.7100 2.8320 2.9375 3.0422
3.1395 3.2334 3.3242 3.4184 3.5133 3.6087
3.7134 3.8240 3.9321 4.0389 4.1495 4.2478
4.3458 4.4403 4.5261 4.6048 4.6805 4.7548
4.8254 4.9026 4.9786 5.0580 5.1431 5.2288
5.3154 5.3974 5.4783 5.5549 5.6309 5.6999
5.7689 5.8357 5.8933 5.9485 5.9986 6.0440
6.0802 6.1165 6.1458 6.1713 6.1974 6.2211
6.2475 6.2775 6.3115 6.3477 6.3837 6.4168
6.4458 6.4710 6.4908 6.5006 6.5047 6.5040
6.4918 6.4760 6.4606 6.4385 6.4209 6.4045
6.3900 6.3824 6.3755 6.3682 6.3588 6.3462
6.3260 6.2999 6.2715 6.2384 6.2031 6.1713
6.1426 6.1152 6.0972 6.0812 6.0686 6.0591
6.0515 6.0484 6.0484 6.0515 6.0528 6.0582
6.0600 6.0629 6.0626 6.0619 6.0591 6.0550
6.0506 6.0424 6.0377 6.0260 6.0162 6.0036
5.9939 5.9822 5.9743 5.9661 5.9516 5.9428
5.9249 5.9069 5.8852 5.8555 5.8240 5.7827
5.7326 5.6725 5.5993 5.5187 5.4286 5.3324
5.2253 5.1144 4.9972 4.8761 4.7520 4.6241
4.4983 4.3672 4.2311 4.0924 3.9466 3.7950
3.6447 3.4884 3.3343 3.1796 3.0343 2.8912
2.7589 2.6331 2.5077 2.3861 2.2632 2.1422
2.0174 1.8967 1.7726 1.6459 1.5151 1.3774
1.2328 1.0875 0.9416 0.7941 0.6510 0.5118
0.3728 0.2414 0.1147 -0.0091 -0.1289 -0.2461
-0.3624 -0.4739 -0.5785 -0.6822 -0.7821 -0.8833
-0.9850 -1.0859 -1.1886 -1.2917 -1.3928 -1.4936
-1.5901 -1.6805 -1.7687 -1.8478 -1.9247 -2.0010
-2.0722 -2.1431 -2.2109 -2.2827 -2.3495 -2.4191
-2.4901 -2.5591 -2.6271 -2.6980 -2.7702 -2.8411
-2.9205 -2.9968 -3.0844 -3.1780 -3.2778 -3.3834
-3.4953 -3.6141 -3.7288 -3.8495 -3.9654 -4.0719
-4.1835 -4.2938 -4.3994 -4.4970 -4.5875 -4.6713
-4.7413 -4.8081 -4.8667 -4.9158 -4.9540 -4.9855
-5.0097 -5.0305 -5.0463 -5.0608 -5.0794 -5.0970
-5.1203 -5.1459 -5.1739 -5.1963 -5.2205 -5.2417
-5.2618 -5.2801 -5.3009 -5.3226 -5.3453 -5.3724
-5.3973 -5.4216 -5.4414 -5.4635 -5.4786 -5.4897
-5.4919 -5.4859 -5.4695 -5.4433 -5.4043 -5.3520
-5.2892 -5.2155 -5.1348 -5.0475 -4.9603 -4.8695
-4.7784 -4.6889 -4.5988 -4.5049 -4.4101 -4.3102
-4.2049 -4.1025 -3.9963 -3.8933 -3.7918 -3.6881
-3.5854 -3.4789 -3.3743 -3.2649 -3.1572 -3.0453
-2.9322 -2.8146 -2.6952 -2.5761 -2.4589 -2.3479
-2.2427 -2.1425 -2.0448 -1.9534 -1.8579 -1.7725
-1.6862 -1.6077 -1.5343 -1.4596 -1.3887 -1.3153
-1.2393 -1.1587 -1.0717 -0.9816 -0.8848 -0.7862
-0.6901 -0.5930 -0.5020 -0.4106 -0.3252 -0.2429
-0.1673 -0.0952 -0.0324 0.0312 0.0851 0.1393
0.1881 0.2310 0.2761 0.3120 0.3485 0.3772
0.4094 0.4352 0.4550 0.4714 0.4869 0.4932
0.4995 0.5026 0.4998 0.4970 0.4922 0.4834
0.4680 0.4513 0.4264 0.3990 0.3684 0.3350
0.3050 0.2764 0.2496 0.2247 0.1948 0.1692
0.1402 0.1090 0.0807 0.0485 0.0173 -0.0110
-0.0387 -0.0665 -0.0879 -0.1081 -0.1276 -0.1437
-0.1604 -0.1805 -0.2026 -0.2300 -0.2700 -0.3120
-0.3602 -0.4147 -0.4755 -0.5329 -0.5952 -0.6561
-0.7172 -0.7774 -0.8297 -0.8911 -0.9434 -1.0017
-1.0553 -1.1073 -1.1580 -1.2031 -1.2460 -1.2835
-1.3178 -1.3481 -1.3764 -1.4004 -1.4275 -1.4505
-1.4751 -1.5009 -1.5255 -1.5557 -1.5869 -1.6244
-1.6711 -1.7231 -1.7791 -1.8362 -1.8986 -1.9553
-2.0123 -2.0716 -2.1270 -2.1882 -2.2468 -2.3010
-2.3520 -2.3968 -2.4371 -2.4724 -2.4992 -2.5241
-2.5414 -2.5553 -2.5647 -2.5632 -2.5559 -2.5376
-2.5115 -2.4756 -2.4346 -2.3914 -2.3419 -2.2934
-2.2430 -2.1932 -2.1472 -2.1012 -2.0549 -2.0089
-1.9575 -1.9055 -1.8482 -1.7839 -1.7164 -1.6402
-1.5598 -1.4703 -1.3758 -1.2772 -1.1798 -1.0827
-0.9873 -0.8962 -0.8079 -0.7263 -0.6485 -0.5732
-0.5039 -0.4352 -0.3725 -0.3173 -0.2625 -0.2165
-0.1695 -0.1292 -0.0917 -0.0564 -0.0239 0.0054
0.0318 0.0539 0.0678 0.0785 0.0813 0.0823
0.0813 0.0810 0.0785 0.0750 0.0747 0.0703
0.0646 0.0652 0.0571 0.0501 0.0410 0.0259
0.0066 -0.0157 -0.0391 -0.0674 -0.0895 -0.1169
-0.1427 -0.1733 -0.2017 -0.2347 -0.2754 -0.3085
-0.3501 -0.3895 -0.4248 -0.4651 -0.4991 -0.5294
-0.5596 -0.5823 -0.6069 -0.6252 -0.6438 -0.6661
-0.6832 -0.7065 -0.7282 -0.7497 -0.7761 -0.7982
-0.8269 -0.8574 -0.8905 -0.9223 -0.9567 -0.9948
-1.0276 -1.0578 -1.0840 -1.1083 -1.1256 -1.1426
-1.1558 -1.1716 -1.1804 -1.1914 -1.2091 -1.2230
-1.2375 -1.2526 -1.2649 -1.2709 -1.2756 -1.2702
-1.2617 -1.2463 -1.2214 -1.1952 -1.1675 -1.1376
-1.1089 -1.0812 -1.0471 -1.0137 -0.9740 -0.9365
-0.9022 -0.8653 -0.8404 -0.8102 -0.7897 -0.7670
-0.7481 -0.7323 -0.7140 -0.6999 -0.6787 -0.6598
-0.6305 -0.5984 -0.5571 -0.5076 -0.4468 -0.3813
-0.3094 -0.2300 -0.1490 -0.0636 0.0208 0.1109
0.2030 0.2972 0.3945 0.4922 0.5909 0.6860
0.7843 0.8792 0.9747 1.0657 1.1533 1.2444
1.3232 1.4083 1.4893 1.5743 1.6591 1.7432
1.8299 1.9144 1.9957 2.0763 2.1567 2.2292
2.3057 2.3735 2.4419 2.5058 2.5682 2.6313
2.6918 2.7576 2.8197 2.8849 2.9517 3.0132
3.0759 3.1380 3.2007 3.2602 3.3176 3.3730
3.4225 3.4720 3.5211 3.5694 3.6151 3.6623
3.7014 3.7427 3.7780 3.8079 3.8388 3.8700
3.9043 3.9409 3.9875 4.0342 4.0909 4.1498
4.2116 4.2714 4.3288 4.3811 4.4306 4.4785
4.5185 4.5582 4.5910 4.6215 4.6471 4.6770
4.7076 4.7400 4.7804 4.8194 4.8629 4.9077
4.9575 5.0110 5.0649 5.1242 5.1793 5.2326
5.2842 5.3321 5.3753 5.4122 5.4424 5.4645
5.4765 5.4802 5.4802 5.4730 5.4661 5.4591
5.4497 5.4386 5.4232 5.4059 5.3810 5.3514
5.3132 5.2647 5.2058 5.1386 5.0608 4.9770
4.8884 4.7952 4.7044 4.6130 4.5248 4.4391
4.3581 4.2733 4.1914 4.1060 4.0219 3.9374
3.8495 3.7622 3.6705 3.5823 3.4915 3.4042
3.3214 3.2397 3.1619 3.0891 3.0163 2.9457
2.8739 2.7998 2.7252 2.6480 2.5695 2.4891
2.4015 2.3139 2.2229 2.1302 2.0363 1.9399
1.8457 1.7470 1.6446 1.5416 1.4332 1.3219
1.2079 1.0878 0.9684 0.8401 0.7119 0.5779
0.4453 0.3136 0.1844 0.0630 -0.0542 -0.1629
-0.2678 -0.3627 -0.4582 -0.5467 -0.6324 -0.7156
-0.7919 -0.8625 -0.9242 -0.9816 -1.0317 -1.0780
-1.1218 -1.1647 -1.2066 -1.2494 -1.2957 -1.3418
-1.3960 -1.4467 -1.5018 -1.5557 -1.6039 -1.6518
-1.6896 -1.7275 -1.7539 -1.7854 -1.8088 -1.8349
-1.8604 -1.8841 -1.9074 -1.9247 -1.9443 -1.9537
-1.9682 -1.9748 -1.9824 -1.9887 -2.0038 -2.0211
-2.0410 -2.0713 -2.1028 -2.1478 -2.1926 -2.2483
-2.3104 -2.3769 -2.4519 -2.5323 -2.6196 -2.7040
-2.7935 -2.8786 -2.9593 -3.0327 -3.1014 -3.1644
-3.2214 -3.2775 -3.3267 -3.3825 -3.4307 -3.4820
-3.5334 -3.5769 -3.6216 -3.6629 -3.7055 -3.7445
-3.7830 -3.8214 -3.8624 -3.9056 -3.9525 -4.0004
-4.0533 -4.1085 -4.1592 -4.2147 -4.2648 -4.3136
-4.3641 -4.4094 -4.4526 -4.4910 -4.5298 -4.5572
-4.5809 -4.5985 -4.6076 -4.6067 -4.5991 -4.5846
-4.5626 -4.5377 -4.5068 -4.4775 -4.4438 -4.4192
-4.3902 -4.3675 -4.3407 -4.3080 -4.2736 -4.2301
-4.1788 -4.1208 -4.0540 -3.9765 -3.8967 -3.8088
-3.7275 -3.6386 -3.5561 -3.4738 -3.3957 -3.3226
-3.2507 -3.1836 -3.1143 -3.0450 -2.9706 -2.8915
-2.8080 -2.7251 -2.6385 -2.5521 -2.4661 -2.3810
-2.2959 -2.2137 -2.1270 -2.0388 -1.9502 -1.8614
-1.7672 -1.6770 -1.5907 -1.5047 -1.4205 -1.3405
-1.2636 -1.1829 -1.1089 -1.0310 -0.9513 -0.8684
-0.7827 -0.6898 -0.5933 -0.4900 -0.3901 -0.2908
-0.1935 -0.1018 -0.0142 0.0640 0.1415 0.2162
0.2928 0.3719 0.4544 0.5367 0.6230 0.7169
0.8096 0.9060 1.0021 1.0947 1.1877 1.2794
1.3661 1.4474 1.5258 1.5939 1.6604 1.7165
1.7685 1.8142 1.8561 1.8955 1.9295 1.9638
1.9894 2.0177 2.0354 2.0581 2.0710 2.0845
2.0974 2.1053 2.1164 2.1290 2.1466 2.1636
2.1910 2.2191 2.2509 2.2834 2.3256 2.3691
2.4167 2.4671 2.5140 2.5588 2.5975 2.6313
2.6615 2.6858 2.7100 2.7311 2.7491 2.7639
2.7753 2.7825 2.7850 2.7803 2.7671 2.7516
2.7286 2.7107 2.6914 2.6801 2.6719 2.6744
2.6792 2.6845 2.6899 2.6902 2.6902 2.6779
2.6688 2.6527 2.6366 2.6243 2.6142 2.6064
2.6001 2.5925 2.5846 2.5758 2.5638 2.5512
2.5377 2.5244 2.5140 2.5002 2.4898 2.4743
2.4595 2.4419 2.4223 2.3984 2.3700 2.3432
2.3023 2.2692 2.2285 2.1885 2.1504 2.1123
2.0757 2.0398 2.0004 1.9556 1.9068 1.8482
1.7867 1.7190 1.6475 1.5699 1.4924 1.4086
1.3254 1.2343 1.1404 1.0421 0.9410 0.8395
0.7380 0.6391 0.5436 0.4525 0.3671 0.2934
0.2234 0.1614 0.1053 0.0539 0.0051 -0.0416
-0.0854 -0.1311 -0.1758 -0.2206 -0.2744 -0.3239
-0.3832 -0.4383 -0.4969 -0.5618 -0.6223 -0.6885
-0.7531 -0.8187 -0.8851 -0.9567 -1.0184 -1.0862
-1.1461 -1.2072 -1.2661 -1.3210 -1.3808 -1.4303
-1.4823 -1.5308 -1.5775 -1.6269 -1.6802 -1.7426
-1.8094 -1.8838 -1.9597 -2.0300 -2.1002 -2.1614
-2.2156 -2.2622 -2.3054 -2.3423 -2.3772 -2.4087
-2.4403 -2.4752 -2.5086 -2.5477 -2.5858 -2.6255
-2.6640 -2.6983 -2.7280 -2.7551 -2.7787 -2.7998
-2.8256 -2.8439 -2.8635 -2.8808 -2.8918 -2.9066
-2.9142 -2.9268 -2.9356 -2.9419 -2.9454 -2.9454
-2.9429 -2.9391 -2.9340 -2.9249 -2.9240 -2.9155
-2.9126 -2.9104 -2.9047 -2.9044 -2.9035 -2.9057
-2.9057 -2.9041 -2.9019 -2.8931 -2.8836 -2.8729
-2.8606 -2.8505 -2.8411 -2.8316 -2.8222 -2.8127
-2.8020 -2.7941 -2.7840 -2.7781 -2.7752 -2.7730
-2.7765 -2.7809 -2.7891 -2.8001 -2.8093 -2.8178
-2.8238 -2.8238 -2.8219 -2.8152 -2.7963 -2.7743
-2.7415 -2.7046 -2.6649 -2.6158 -2.5647 -2.5086
-2.4478 -2.3876 -2.3290 -2.2676 -2.2153 -2.1620
-2.1157 -2.0747 -2.0378 -2.0085 -1.9799 -1.9559
-1.9320 -1.9083 -1.8901 -1.8680 -1.8481 -1.8255
-1.7999 -1.7779 -1.7511 -1.7325 -1.7101 -1.6941
-1.6796 -1.6641 -1.6503 -1.6402 -1.6241 -1.6150
-1.6083 -1.5967 -1.5916 -1.5797 -1.5712 -1.5538
-1.5374 -1.5129 -1.4813 -1.4457 -1.4032 -1.3553
-1.3043 -1.2535 -1.2094 -1.1643 -1.1209 -1.0837
-1.0421 -1.0033 -0.9579 -0.9179 -0.8779 -0.8376
-0.8023 -0.7692 -0.7374 -0.7080 -0.6756 -0.6460
-0.6157 -0.5842 -0.5593 -0.5306 -0.5095 -0.4871
-0.4638 -0.4408 -0.4090 -0.3810 -0.3501 -0.3141
-0.2820 -0.2455 -0.2155 -0.1812 -0.1475 -0.1159
-0.0841 -0.0542 -0.0217 0.0126 0.0473 0.0804
0.1169 0.1503 0.1926 0.2310 0.2704 0.3085
0.3489 0.3838 0.4166 0.4544 0.4872 0.5272
0.5713 0.6167 0.6602 0.7112 0.7636 0.8118
0.8685 0.9230 0.9772 1.0387 1.0966 1.1578
1.2192 1.2819 1.3453 1.4089 1.4685 1.5321
1.5948 1.6579 1.7243 1.7918 1.8668 1.9333
2.0067 2.0741 2.1356 2.1970 2.2509 2.2966
2.3363 2.3678 2.3959 2.4163 2.4362 2.4523
2.4690 2.4913 2.5125 2.5386 2.5679 2.5934
2.6218 2.6486 2.6744 2.7059 2.7299 2.7595
2.7841 2.8140 2.8402 2.8714 2.9060 2.9360
2.9710 3.0078 3.0456 3.0863 3.1329 3.1767
3.2271 3.2782 3.3352 3.3916 3.4531 3.5174
3.5810 3.6497 3.7134 3.7748 3.8341 3.8835
3.9330 3.9778 4.0222 4.0619 4.0994 4.1334
4.1599 4.1785 4.1892 4.1889 4.1785 4.1665
4.1397 4.1148 4.0773 4.0398 3.9970 3.9557
3.9147 3.8741 3.8410 3.8060 3.7833 3.7594
3.7436 3.7244 3.7068 3.6853 3.6582 3.6261
3.5842 3.5388 3.4881 3.4395 3.3863 3.3374
3.2895 3.2416 3.1969 3.1506 3.1083 3.0633
3.0163 2.9659 2.9092 2.8484 2.7791 2.7066
2.6313 2.5525 2.4750 2.3949 2.3158 2.2333
2.1504 2.0653 1.9787 1.8882 1.7943 1.6922
1.5866 1.4754 1.3535 1.2378 1.1111 0.9908
0.8726 0.7532 0.6388 0.5212 0.4031 0.2789
0.1563 0.0265 -0.1055 -0.2373 -0.3680 -0.4950
-0.6179 -0.7342 -0.8480 -0.9573 -1.0556 -1.1461
-1.2308 -1.3068 -1.3815 -1.4527 -1.5192 -1.5879
-1.6553 -1.7199 -1.7848 -1.8497 -1.9140 -1.9758
-2.0413 -2.1040 -2.1645 -2.2288 -2.2874 -2.3476
-2.4087 -2.4689 -2.5256 -2.5855 -2.6422 -2.7021
-2.7598 -2.8149 -2.8742 -2.9236 -2.9772 -3.0216
-3.0664 -3.1080 -3.1442 -3.1842 -3.2176 -3.2542
-3.2923 -3.3320 -3.3727 -3.4174 -3.4619 -3.5057
-3.5460 -3.5810 -3.6090 -3.6295 -3.6383 -3.6405
-3.6330 -3.6141 -3.5948 -3.5636 -3.5315 -3.4880
-3.4477 -3.3979 -3.3409 -3.2826 -3.2104 -3.1392
-3.0604 -2.9797 -2.8931 -2.8105 -2.7204 -2.6350
-2.5499 -2.4648 -2.3813 -2.2962 -2.2165 -2.1254
-2.0366 -1.9433 -1.8453 -1.7419 -1.6392 -1.5277
-1.4174 -1.3036 -1.1851 -1.0685 -0.9475 -0.8300
-0.7099 -0.5930 -0.4745 -0.3592 -0.2442 -0.1285
-0.0151 0.1040 0.2234 0.3489 0.4765 0.6054
0.7383 0.8612 0.9863 1.1004 1.2101 1.3122
1.4073 1.4956 1.5803 1.6575 1.7294 1.8028
1.8680 1.9405 2.0017 2.0726 2.1362 2.2027
2.2698 2.3228 2.3776 2.4217 2.4611 2.4885
2.5140 2.5248 2.5295 2.5260 2.5121 2.4995
2.4765 2.4564 2.4324 2.4138 2.3924 2.3732
2.3584 2.3395 2.3294 2.3111 2.2985 2.2793
2.2601 2.2421 2.2210 2.2055 2.1866 2.1737
2.1639 2.1621 2.1589 2.1608 2.1614 2.1624
2.1658 2.1655 2.1687 2.1680 2.1725 2.1693
2.1649 2.1592 2.1460 2.1340 2.1145 2.0984
2.0795 2.0571 2.0351 2.0108 1.9862 1.9591
1.9345 1.9014 1.8684 1.8318 1.7902 1.7442
1.6928 1.6386 1.5785 1.5224 1.4615 1.4042
1.3443 1.2870 1.2249 1.1647 1.1055 1.0402
0.9797 0.9132 0.8540 0.7878 0.7292 0.6656
0.6016 0.5373 0.4667 0.3961 0.3129 0.2282
0.1314 0.0360 -0.0649 -0.1604 -0.2546 -0.3444
-0.4301 -0.5177 -0.5949 -0.6753 -0.7474 -0.8199
-0.8877 -0.9542 -1.0197 -1.0856 -1.1543 -1.2195
-1.2938 -1.3670 -1.4432 -1.5214 -1.6001 -1.6840
-1.7656 -1.8500 -1.9339 -2.0192 -2.1021 -2.1885
-2.2745 -2.3608 -2.4525 -2.5408 -2.6353 -2.7264
-2.8181 -2.9022 -2.9841 -3.0572 -3.1184 -3.1792
-3.2290 -3.2785 -3.3207 -3.3645 -3.4032 -3.4379
-3.4697 -3.4997 -3.5239 -3.5463 -3.5696 -3.5851
-3.6068 -3.6204 -3.6352 -3.6478 -3.6620 -3.6746
-3.6913 -3.7124 -3.7307 -3.7562 -3.7760 -3.7959
-3.8085 -3.8214 -3.8258 -3.8239 -3.8164 -3.8006
-3.7811 -3.7552 -3.7294 -3.6932 -3.6661 -3.6342
-3.6046 -3.5791 -3.5564 -3.5381 -3.5145 -3.4940
-3.4641 -3.4332 -3.3922 -3.3484 -3.3018 -3.2570
-3.2091 -3.1622 -3.1234 -3.0840 -3.0560 -3.0248
-3.0008 -2.9785 -2.9558 -2.9378 -2.9154 -2.8918
-2.8672 -2.8389 -2.8083 -2.7730 -2.7374 -2.6996
-2.6602 -2.6224 -2.5843 -2.5455 -2.5074 -2.4718
-2.4384 -2.4084 -2.3816 -2.3567 -2.3252 -2.2991
-2.2644 -2.2266 -2.1882 -2.1434 -2.0968 -2.0482
-1.9969 -1.9433 -1.8960 -1.8472 -1.8062 -1.7649
-1.7315 -1.6925 -1.6581 -1.6219 -1.5812 -1.5440
-1.4996 -1.4587 -1.4136 -1.3786 -1.3421 -1.3105
-1.2816 -1.2573 -1.2346 -1.2103 -1.1873 -1.1609
-1.1338 -1.0997 -1.0657 -1.0263 -0.9816 -0.9321
-0.8810 -0.8259 -0.7673 -0.7109 -0.6526 -0.6000
-0.5505 -0.5038 -0.4622 -0.4200 -0.3813 -0.3381
-0.2924 -0.2445 -0.1938 -0.1452 -0.0951 -0.0460
0.0035 0.0527 0.0990 0.1475 0.1932 0.2367
0.2770 0.3158 0.3549 0.3952 0.4380 0.4853
0.5313 0.5786 0.6293 0.6738 0.7201 0.7626
0.8033 0.8420 0.8817 0.9224 0.9687 1.0185
1.0680 1.1190 1.1760 1.2318 1.2854 1.3396
1.3828 1.4256 1.4631 1.4984 1.5302 1.5668
1.6034 1.6465 1.6973 1.7606 1.8280 1.8996
1.9717 2.0376 2.1019 2.1573 2.2084 2.2481
2.2834 2.3073 2.3325 2.3549 2.3785 2.4056
2.4365 2.4655 2.4973 2.5279 2.5525 2.5720
2.5831 2.5859 2.5821 2.5730 2.5575 2.5459
2.5304 2.5210 2.5099 2.5040 2.4964 2.4942
2.4926 2.4923 2.4951 2.4995 2.5040 2.5090
2.5191 2.5241 2.5333 2.5418 2.5563 2.5689
2.5900 2.6111 2.6344 2.6631 2.6899 2.7182
2.7463 2.7718 2.7885 2.8058 2.8156 2.8241
2.8370 2.8484 2.8692 2.8972 2.9360 2.9829
3.0356 3.0957 3.1547 3.2155 3.2766 3.3365
3.4002 3.4660 3.5312 3.6018 3.6718 3.7468
3.8202 3.8968 3.9746 4.0499 4.1278 4.2009
4.2730 4.3389 4.4013 4.4561 4.5084 4.5525
4.5945 4.6335 4.6707 4.7032 4.7372 4.7709
4.8031 4.8361 4.8639 4.8929 4.9219 4.9480
4.9726 4.9975 5.0177 5.0356 5.0482 5.0608
5.0646 5.0693 5.0668 5.0611 5.0536 5.0391
5.0199 4.9969 4.9701 4.9405 4.9127 4.8796
4.8475 4.8068 4.7634 4.7073 4.6452 4.5752
4.4965 4.4170 4.3357 4.2563 4.1757 4.0972
4.0181 3.9340 3.8549 3.7745 3.6926 3.6166
3.5398 3.4685 3.4002 3.3368 3.2754 3.2164
3.1581 3.1011 3.0409 2.9804 2.9152 2.8474
2.7791 2.7047 2.6328 2.5588 2.4879 2.4182
2.3470 2.2764 2.2033 2.1299 2.0540 1.9749
1.8936 1.8075 1.7259 1.6418 1.5611 1.4883
1.4159 1.3503 1.2920 1.2312 1.1738 1.1152
1.0541 0.9911 0.9246 0.8568 0.7847 0.7103
0.6353 0.5572 0.4771 0.3968 0.3104 0.2272
0.1409 0.0580 -0.0302 -0.1153 -0.2010 -0.2889
-0.3728 -0.4556 -0.5366 -0.6144 -0.6901 -0.7673
-0.8404 -0.9151 -0.9866 -1.0591 -1.1268 -1.1917
-1.2500 -1.3036 -1.3521 -1.3959 -1.4388 -1.4842
-1.5255 -1.5693 -1.6121 -1.6591 -1.7092 -1.7596
-1.8204 -1.8752 -1.9370 -1.9972 -2.0571 -2.1176
-2.1815 -2.2417 -2.3060 -2.3753 -2.4399 -2.5137
-2.5836 -2.6558 -2.7302 -2.8036 -2.8761 -2.9498
-3.0204 -3.0875 -3.1518 -3.2120 -3.2740 -3.3314
-3.3913 -3.4489 -3.5031 -3.5605 -3.6122 -3.6629
-3.7133 -3.7568 -3.7968 -3.8365 -3.8731 -3.9071
-3.9424 -3.9774 -4.0073 -4.0357 -4.0615 -4.0767
-4.0911 -4.0959 -4.0946 -4.0965 -4.0937 -4.0924
-4.0968 -4.1019 -4.1129 -4.1290 -4.1460 -4.1649
-4.1863 -4.2162 -4.2396 -4.2645 -4.2947 -4.3253
-4.3511 -4.3785 -4.4066 -4.4274 -4.4479 -4.4649
-4.4822 -4.4923 -4.5017 -4.5147 -4.5232 -4.5263
-4.5317 -4.5377 -4.5418 -4.5405 -4.5421 -4.5396
-4.5260 -4.5162 -4.5030 -4.4857 -4.4646 -4.4327
-4.4063 -4.3785 -4.3382 -4.3045 -4.2682 -4.2235
-4.1781 -4.1340 -4.0817 -4.0288 -3.9698 -3.9096
-3.8431 -3.7704 -3.6963 -3.6115 -3.5331 -3.4496
-3.3689 -3.2967 -3.2233 -3.1562 -3.0979 -3.0374
-2.9747 -2.9154 -2.8553 -2.7916 -2.7273 -2.6640
-2.5965 -2.5313 -2.4708 -2.4040 -2.3451 -2.2849
-2.2301 -2.1768 -2.1270 -2.0820 -2.0312 -1.9887
-1.9436 -1.8998 -1.8513 -1.7990 -1.7419 -1.6849
-1.6250 -1.5604 -1.4949 -1.4278 -1.3625 -1.2998
-1.2415 -1.1810 -1.1234 -1.0679 -1.0124 -0.9589
-0.9050 -0.8549 -0.8029 -0.7559 -0.7099 -0.6633
-0.6176 -0.5678 -0.5221 -0.4708 -0.4210 -0.3690
-0.3173 -0.2647 -0.2158 -0.1670 -0.1213 -0.0737
-0.0245 0.0205 0.0725 0.1169 0.1674 0.2156
0.2644 0.3167 0.3662 0.4182 0.4708 0.5266
0.5799 0.6372 0.6939 0.7497 0.8093 0.8638
0.9148 0.9630 1.0094 1.0503 1.0925 1.1316
1.1716 1.2123 1.2574 1.3053 1.3487 1.4064
1.4634 1.5230 1.5816 1.6443 1.7073 1.7719
1.8381 1.8977 1.9610 2.0193 2.0760 2.1265
2.1750 2.2172 2.2601 2.3039 2.3392 2.3763
2.4107 2.4457 2.4832 2.5210 2.5585 2.5944
2.6300 2.6631 2.6946 2.7217 2.7463 2.7668
2.7825 2.7989 2.8109 2.8225 2.8288 2.8355
2.8430 2.8487 2.8544 2.8559 2.8588 2.8569
2.8547 2.8484 2.8402 2.8282 2.8150 2.7970
2.7743 2.7438 2.7053 2.6659 2.6190 2.5692
2.5191 2.4665 2.4082 2.3486 2.2812 2.2188
2.1491 2.0789 2.0032 1.9298 1.8507 1.7638
1.6809 1.5908 1.5066 1.4143 1.3223 1.2230
1.1256 1.0283 0.9322 0.8392 0.7443 0.6514
0.5562 0.4711 0.3798 0.2937 0.2083 0.1185
0.0309 -0.0633 -0.1487 -0.2376 -0.3249 -0.4093
-0.4900 -0.5643 -0.6318 -0.6970 -0.7613 -0.8196
-0.8798 -0.9349 -0.9907 -1.0417 -1.0982 -1.1564
-1.2135 -1.2749 -1.3373 -1.4026 -1.4700 -1.5456
-1.6197 -1.6890 -1.7612 -1.8280 -1.8904 -1.9474
-2.0032 -2.0548 -2.1015 -2.1510 -2.1944 -2.2373
-2.2745 -2.3073 -2.3334 -2.3558 -2.3747 -2.3939
-2.4141 -2.4349 -2.4579 -2.4806 -2.5077 -2.5316
-2.5600 -2.5839 -2.6107 -2.6347 -2.6551 -2.6756
-2.6920 -2.7071 -2.7153 -2.7223 -2.7204 -2.7160
-2.7049 -2.6898 -2.6684 -2.6403 -2.6079 -2.5716
-2.5367 -2.4976 -2.4620 -2.4220 -2.3826 -2.3419
-2.2972 -2.2509 -2.2014 -2.1503 -2.0971 -2.0394
-1.9770 -1.9096 -1.8368 -1.7646 -1.6925 -1.6203
-1.5500 -1.4810 -1.4142 -1.3502 -1.2875 -1.2324
-1.1738 -1.1234 -1.0676 -1.0137 -0.9608 -0.8990
-0.8429 -0.7777 -0.7140 -0.6482 -0.5851 -0.5231
-0.4670 -0.4128 -0.3646 -0.3141 -0.2703 -0.2250
-0.1796 -0.1433 -0.1017 -0.0630 -0.0274 0.0073
0.0454 0.0810 0.1185 0.1544 0.1967 0.2361
0.2799 0.3256 0.3753 0.4295 0.4803 0.5304
0.5783 0.6287 0.6782 0.7235 0.7730 0.8159
0.8622 0.9085 0.9470 0.9908 1.0327 1.0784
1.1282 1.1802 1.2312 1.2835 1.3314 1.3837
1.4272 1.4720 1.5135 1.5504 1.5904 1.6229
1.6601 1.6919 1.7222 1.7537 1.7855 1.8170
1.8514 1.8854 1.9194 1.9560 1.9897 2.0281
2.0650 2.0905 2.1202 2.1466 2.1649 2.1835
2.2027 2.2163 2.2342 2.2591 2.2837 2.3124
2.3486 2.3927 2.4305 2.4775 2.5197 2.5623
2.6029 2.6385 2.6741 2.7006 2.7346 2.7598
2.7851 2.8077 2.8326 2.8478 2.8660 2.8767
2.8764 2.8790 2.8708 2.8600 2.8402 2.8260
2.8021 2.7803 2.7598 2.7378 2.7186 2.7003
2.6889 2.6738 2.6640 2.6559 2.6492 2.6439
2.6373 2.6319 2.6237 2.6095 2.5928 2.5768
2.5553 2.5361 2.5181 2.4970 2.4797 2.4595
2.4397 2.4195 2.3997 2.3823 2.3631 2.3467
2.3313 2.3184 2.3067 2.2928 2.2787 2.2673
2.2534 2.2386 2.2257 2.2150 2.2037 2.1977
2.1898 2.1778 2.1684 2.1532 2.1359 2.1214
2.1088 2.1009 2.0956 2.0927 2.0883 2.0880
2.0880 2.0839 2.0861 2.0871 2.0908 2.0927
2.0997 2.1057 2.1135 2.1198 2.1309 2.1438
2.1498 2.1605 2.1671 2.1725 2.1699 2.1709
2.1627 2.1532 2.1422 2.1255 2.1069 2.0814
2.0619 2.0423 2.0187 2.0017 1.9850 1.9657
1.9566 1.9446 1.9358 1.9279 1.9226 1.9178
1.9093 1.9015 1.8898 1.8759 1.8605 1.8413
1.8230 1.8000 1.7751 1.7471 1.7168 1.6944
1.6642 1.6374 1.6109 1.5816 1.5564 1.5299
1.5003 1.4707 1.4357 1.4029 1.3711 1.3371
1.3040 1.2700 1.2315 1.1890 1.1477 1.1001
1.0516 1.0024 0.9473 0.8902 0.8338 0.7721
0.7091 0.6397 0.5707 0.4989 0.4204 0.3451
0.2625 0.1790 0.0961 0.0095 -0.0781 -0.1638
-0.2527 -0.3393 -0.4269 -0.5133 -0.5981 -0.6812
-0.7625 -0.8454 -0.9280 -1.0153 -1.0991 -1.1873
-1.2781 -1.3691 -1.4640 -1.5607 -1.6537 -1.7523
-1.8525 -1.9524 -2.0589 -2.1610 -2.2688 -2.3706
-2.4743 -2.5761 -2.6788 -2.7812 -2.8782 -2.9785
-3.0749 -3.1726 -3.2662 -3.3598 -3.4521 -3.5444
-3.6364 -3.7306 -3.8227 -3.9185 -4.0168 -4.1126
-4.2147 -4.3136 -4.4107 -4.5093 -4.6001 -4.6886
-4.7737 -4.8506 -4.9224 -4.9858 -5.0475 -5.1046
-5.1603 -5.2136 -5.2719 -5.3289 -5.3856 -5.4433
-5.5003 -5.5527 -5.6012 -5.6444 -5.6790 -5.7143
-5.7392 -5.7685 -5.7925 -5.8167 -5.8400 -5.8605
-5.8864 -5.9103 -5.9368 -5.9633 -5.9922 -6.0216
-6.0531 -6.0833 -6.1180 -6.1530 -6.1895 -6.2220
-6.2541 -6.2859 -6.3115 -6.3389 -6.3572 -6.3757
-6.3947 -6.4114 -6.4274 -6.4448 -6.4640 -6.4835
-6.5065 -6.5298 -6.5535 -6.5743 -6.5941 -6.6146
-6.6313 -6.6442 -6.6534 -6.6546 -6.6502 -6.6436
-6.6272 -6.6067 -6.5812 -6.5481 -6.5087 -6.4630
-6.4107 -6.3483 -6.2831 -6.2119 -6.1356 -6.0591
-5.9768 -5.8914 -5.8063 -5.7171 -5.6289 -5.5404
-5.4531 -5.3658 -5.2763 -5.1906 -5.0992 -5.0031
-4.9060 -4.7992 -4.6899 -4.5745 -4.4469 -4.3171
-4.1803 -4.0363 -3.8898 -3.7366 -3.5800 -3.4218
-3.2643 -3.1042 -2.9457 -2.7865 -2.6249 -2.4673
-2.3044 -2.1421 -1.9776 -1.8109 -1.6452 -1.4794
-1.3178 -1.1580 -0.9992 -0.8401 -0.6812 -0.5174
-0.3592 -0.1979 -0.0409 0.1103 0.2682 0.4191
0.5685 0.7166 0.8606 1.0018 1.1386 1.2722
1.3992 1.5189 1.6349 1.7430 1.8473 1.9478
2.0442 2.1365 2.2254 2.3092 2.3946 2.4772
2.5594 2.6373 2.7160 2.7948 2.8676 2.9461
3.0201 3.0983 3.1742 3.2502 3.3289 3.4036
3.4821 3.5536 3.6201 3.6841 3.7373 3.7922
3.8420 3.8820 3.9220 3.9645 4.0071 4.0515
4.0975 4.1394 4.1820 4.2210 4.2604 4.2954
4.3285 4.3578 4.3868 4.4193 4.4464 4.4772
4.5069 4.5327 4.5630 4.5923 4.6172 4.6389
4.6581 4.6767 4.6903 4.7044 4.7145 4.7189
4.7246 4.7227 4.7230 4.7221 4.7155 4.7079
4.6956 4.6833 4.6657 4.6506 4.6320 4.6118
4.5951 4.5746 4.5617 4.5485 4.5359 4.5245
4.5141 4.5078 4.4984 4.4914 4.4776 4.4637
4.4489 4.4319 4.4174 4.4000 4.3877 4.3758
4.3679 4.3518 4.3361 4.3131 4.2879 4.2667
4.2374 4.2106 4.1760 4.1451 4.1111 4.0786
4.0458 4.0150 3.9850 3.9576 3.9324 3.9116
3.8958 3.8817 3.8722 3.8602 3.8524 3.8385
3.8259 3.8104 3.7922 3.7752 3.7550 3.7355
3.7187 3.7002 3.6816 3.6633 3.6466 3.6308
3.6198 3.6110 3.6034 3.5968 3.5914 3.5873
3.5776 3.5703 3.5536 3.5394 3.5221 3.5051
3.4890 3.4748 3.4575 3.4380 3.4238 3.4030
3.3835 3.3598 3.3381 3.3097 3.2795 3.2540
3.2171 3.1799 3.1427 3.1014 3.0620 3.0258
2.9870 2.9489 2.9130 2.8727 2.8317 2.7869
2.7476 2.6993 2.6555 2.6098 2.5575 2.5071
2.4498 2.3908 2.3247 2.2594 2.1885 2.1167
2.0445 1.9761 1.9059 1.8347 1.7675 1.6976
1.6283 1.5621 1.5016 1.4382 1.3667 1.2983
1.2287 1.1556 1.0787 1.0009 0.9233 0.8461
0.7733 0.6990 0.6259 0.5483 0.4724 0.4006
0.3290 0.2584 0.1882 0.1195 0.0533 -0.0141
-0.0784 -0.1449 -0.2120 -0.2747 -0.3393 -0.4005
-0.4562 -0.5095 -0.5558 -0.5990 -0.6387 -0.6759
-0.7112 -0.7509 -0.7884 -0.8265 -0.8659 -0.9081
-0.9513 -0.9907 -1.0380 -1.0792 -1.1278 -1.1776
-1.2299 -1.2740 -1.3225 -1.3650 -1.4114 -1.4542
-1.4993 -1.5510 -1.5910 -1.6373 -1.6811 -1.7255
-1.7703 -1.8204 -1.8626 -1.9124 -1.9562 -1.9997
-2.0498 -2.1015 -2.1443 -2.1966 -2.2449 -2.2883
-2.3347 -2.3886 -2.4355 -2.4793 -2.5168 -2.5480
-2.5871 -2.6104 -2.6466 -2.6804 -2.7106 -2.7346
-2.7632 -2.7865 -2.8159 -2.8285 -2.8511 -2.8663
-2.8726 -2.8738 -2.8760 -2.8839 -2.8738 -2.8757
-2.8637 -2.8537 -2.8395 -2.8294 -2.8102 -2.7916
-2.7683 -2.7453 -2.7160 -2.6835 -2.6495 -2.6148
-2.5842 -2.5423 -2.5080 -2.4699 -2.4374 -2.3986
-2.3633 -2.3378 -2.3104 -2.2868 -2.2688 -2.2540
-2.2370 -2.2278 -2.2215 -2.2124 -2.2052 -2.1998
-2.1913 -2.1762 -2.1614 -2.1469 -2.1327 -2.1166
-2.0974 -2.0826 -2.0681 -2.0564 -2.0426 -2.0309
-2.0218 -2.0085 -2.0003 -1.9852 -1.9723 -1.9572
-1.9452 -1.9297 -1.9152 -1.9042 -1.8922 -1.8796
-1.8632 -1.8560 -1.8415 -1.8343 -1.8286 -1.8242
-1.8210 -1.8226 -1.8210 -1.8198 -1.8217 -1.8207
-1.8188 -1.8135 -1.8053 -1.7993 -1.7895 -1.7819
-1.7756 -1.7624 -1.7552 -1.7467 -1.7457 -1.7413
-1.7419 -1.7441 -1.7451 -1.7438 -1.7441 -1.7385
-1.7331 -1.7249 -1.7114 -1.6981 -1.6773 -1.6638
-1.6411 -1.6222 -1.6001 -1.5784 -1.5585 -1.5355
-1.5097 -1.4810 -1.4549 -1.4224 -1.3855 -1.3490
-1.3112 -1.2740 -1.2336 -1.1949 -1.1593 -1.1265
-1.0959 -1.0695 -1.0417 -1.0102 -0.9856 -0.9541
-0.9277 -0.8980 -0.8741 -0.8489 -0.8196 -0.7944
-0.7629 -0.7323 -0.7055 -0.6705 -0.6333 -0.5999
-0.5596 -0.5196 -0.4789 -0.4399 -0.3923 -0.3460
-0.2952 -0.2435 -0.1897 -0.1355 -0.0803 -0.0230
0.0312 0.0895 0.1453 0.2061 0.2638 0.3240
0.3870 0.4478 0.5137 0.5818 0.6476 0.7147
0.7841 0.8502 0.9120 0.9747 1.0321 1.0904
1.1461 1.2035 1.2567 1.3043 1.3579 1.4042
1.4461 1.4865 1.5255 1.5552 1.5886 1.6087
1.6248 1.6393 1.6491 1.6573 1.6613 1.6699
1.6705 1.6752 1.6746 1.6771 1.6752 1.6727
1.6702 1.6642 1.6547 1.6443 1.6324 1.6160
1.5999 1.5804 1.5633 1.5419 1.5170 1.4959
1.4701 1.4408 1.4137 1.3837 1.3576 1.3314
1.3053 1.2813 1.2618 1.2385 1.2183 1.2016
1.1858 