Archivo de aceleración parte de la Red Nacional de Acelerógrafos (RENAC) Ecuador
          
Evento: 201604162358
Fecha del evento UTM (aammdd):                  2016    4   16
Hora del registro UTM (hhmmss): 23   59 20.00
Estación:                                      APO1 
Componente:                                        N
Frecuencia de muestreo (Hz):            1.000000e+02
Unidades: cm/s^2
_____________________________________________
-3.0466 -6.2531 -9.4362 -12.8898 -15.6161 -17.8818
-19.8454 -21.0305 -22.0393 -22.8123 -22.6734 -22.0972
-21.5424 -20.0674 -17.0521 -13.1631 -8.8200 -4.1973
0.6595 6.0039 11.1880 15.2774 18.2424 20.6936
23.1709 24.7541 24.7336 23.9000 22.0120 18.9006
15.5636 12.2359 8.5287 4.3497 -0.2898 -4.6814
-8.1666 -11.2948 -13.7759 -15.2640 -15.9288 -15.7572
-16.1722 -17.8020 -19.0299 -19.2267 -19.0505 -17.9810
-15.6911 -12.6972 -9.1038 -5.5953 -1.9226 2.4782
5.8535 7.2996 8.2553 9.8002 12.3298 15.4132
17.8010 19.4886 21.1827 22.1310 21.2797 18.9124
15.3376 10.4062 5.2016 1.3499 -0.7918 -1.0463
-0.3909 -1.1918 -3.3046 -5.6328 -7.7670 -9.2896
-10.5176 -11.6392 -12.6667 -13.7828 -15.4649 -17.3874
-19.1720 -20.8867 -22.4046 -23.1179 -22.4158 -21.0238
-17.9535 -12.9456 -7.7383 -1.9622 4.1645 9.6600
15.0967 20.0915 23.0677 24.1334 23.9553 23.2224
22.5110 21.3390 20.0607 18.6975 16.1484 11.9042
6.3798 0.2801 -5.2387 -9.1501 -11.5771 -13.3011
-15.3048 -17.6162 -20.3621 -22.9038 -24.2445 -24.6231
-23.2693 -20.2950 -16.4937 -12.1338 -7.8374 -3.3377
1.3624 5.6533 8.7124 9.6821 9.1058 8.0989
7.8126 8.8653 10.3207 11.2037 11.1431 9.8526
7.7464 5.8396 4.3608 3.3399 3.6559 4.8568
4.0774 0.2033 -4.9137 -9.9635 -13.4282 -14.6813
-15.1755 -14.6133 -12.8259 -10.9891 -8.9761 -6.9827
-4.9464 -2.4886 -0.0402 1.9691 2.6591 3.4758
4.9098 5.5233 6.8827 9.1046 10.5134 10.3549
8.9022 6.8603 5.7349 6.4081 7.3376 8.8015
11.3655 14.3771 17.4894 19.9024 20.2493 19.6525
18.4973 15.3533 11.8149 7.0532 1.9884 -0.1728
-1.8539 -3.4642 -2.5374 -1.0558 0.0863 1.7413
2.4835 2.1860 1.1445 0.2634 0.1124 -0.6196
-1.9128 -3.9258 -7.0987 -9.8297 -11.1919 -11.8185
-11.9668 -11.3840 -10.2782 -9.2508 -7.6023 -4.3362
-0.8994 1.2255 2.5513 2.7089 0.8050 -2.4845
-5.2677 -5.8075 -3.5848 0.4730 5.1834 9.1749
11.8303 13.1842 12.0783 9.2383 6.2835 3.7708
1.9218 0.6808 0.5456 0.4244 -1.3742 -4.8790
-8.8958 -12.4314 -15.3423 -17.2751 -18.0155 -16.1749
-11.3014 -5.4078 0.6555 6.0065 9.1794 9.8441
8.5873 6.9071 6.3887 6.8241 7.1691 7.5886
7.8991 8.5154 8.7476 7.1317 5.4227 3.6828
0.7122 -3.0574 -6.7926 -8.9482 -9.3762 -9.8592
-10.9632 -12.1156 -12.9156 -12.9790 -11.8126 -8.1847
-2.4757 3.4076 7.7861 9.6565 9.0886 6.9124
5.0216 4.5619 4.9535 6.0677 7.4923 8.6103
10.5916 12.2223 11.1249 8.4871 6.7566 6.0256
4.9263 4.5897 4.9888 4.4349 4.1375 4.4284
2.6009 -0.8806 -3.8037 -6.5440 -8.6297 -10.5458
-12.1420 -12.2138 -12.2539 -13.0595 -14.4124 -15.8912
-16.3770 -15.3653 -14.3854 -14.5999 -15.0996 -15.0875
-13.2013 -9.6033 -5.5437 -0.6580 4.4189 8.4766
11.3893 13.7138 15.2569 16.6163 17.6848 16.8587
16.5687 17.5924 17.7537 17.2773 15.6792 13.6195
11.7277 9.4909 7.1161 4.0802 0.4971 -3.5719
-7.7275 -11.6687 -14.1190 -15.3526 -17.2752 -19.5027
-22.9301 -25.3720 -24.6923 -21.4337 -14.5182 -5.4815
3.8339 12.8212 20.2803 25.6750 30.2241 34.5028
37.8501 40.3535 41.0034 38.8104 34.4963 29.2954
23.4773 16.8425 9.5046 0.9322 -7.8136 -14.2470
-17.6680 -17.7789 -14.6638 -9.6793 -5.2524 -3.5778
-4.3405 -6.5764 -8.7880 -10.5278 -11.7670 -11.5740
-10.5260 -8.4347 -6.6249 -6.1168 -6.1513 -8.2893
-12.4747 -17.4201 -22.1035 -23.4331 -19.9022 -13.1545
-5.1248 2.6475 8.4209 11.9509 14.7452 16.8981
18.8300 21.2896 23.1777 23.3492 21.6709 17.7409
11.7485 5.2180 -1.6266 -7.4438 -11.9360 -17.3784
-23.0212 -28.2864 -33.5348 -37.3268 -38.9520 -38.4876
-35.7203 -30.3918 -23.6124 -16.7622 -9.7954 -3.8878
0.5037 5.4910 11.7483 18.2777 24.4986 29.2556
30.9815 30.6272 29.4374 27.2025 24.9573 22.0380
17.5196 12.8987 7.5561 2.0746 -1.4824 -3.8041
-5.6176 -7.9308 -11.5159 -16.4165 -21.4728 -25.1362
-27.1044 -26.8452 -24.1684 -18.9526 -13.5252 -9.2269
-6.0186 -5.2363 -5.4415 -6.1492 -6.8177 -5.9814
-4.2648 -1.1852 3.5495 8.6571 13.3712 16.6094
17.3636 15.6219 12.9236 11.5558 11.2472 11.7739
12.5469 12.6578 10.9553 6.8565 2.9703 -1.2478
-4.2613 -4.5886 -4.7368 -4.6193 -5.0576 -7.4650
-11.3475 -15.1395 -20.2816 -25.6932 -28.4866 -29.9085
-28.8745 -25.5077 -22.4327 -20.1689 -18.8505 -19.5293
-20.4495 -20.0384 -19.5759 -17.7410 -14.0637 -8.7994
-0.9618 8.4954 18.4831 27.8256 35.5681 41.7162
44.7250 44.0285 41.7106 38.0538 33.1923 29.4283
27.4199 25.0339 21.7006 17.8601 12.7945 7.5106
1.3643 -6.1004 -12.6783 -18.3361 -23.3887 -28.0292
-33.0193 -37.3689 -39.7978 -40.9651 -40.3376 -36.7778
-32.1588 -27.7374 -23.7505 -20.2112 -16.1442 -11.6379
-6.9229 -1.9281 3.6056 10.2889 17.3042 23.9306
30.5058 36.3836 39.1956 37.9639 33.9938 26.5273
17.1652 9.0012 1.2904 -5.8340 -11.5299 -15.9429
-18.2870 -18.3625 -17.6977 -17.4395 -18.5826 -20.2562
-21.3881 -22.7849 -22.9406 -20.9994 -19.5616 -18.9537
-16.9211 -14.4419 -11.5413 -7.0099 -3.3298 -1.4417
-1.0688 -2.5028 -4.0310 -3.7951 -2.6259 -1.8744
-0.7211 1.1055 3.9763 7.9939 13.2535 18.9569
23.4724 26.3311 25.9367 23.9712 21.4547 17.9499
14.6156 10.7667 7.0391 3.8447 -0.1245 -4.8125
-9.1686 -13.6851 -18.1429 -21.6188 -24.0430 -24.1297
-22.3927 -19.4548 -15.4875 -13.7784 -14.7602 -16.3677
-18.7621 -20.8478 -20.5252 -18.6381 -16.9962 -15.4587
-14.9132 -15.8792 -16.3053 -15.6666 -13.5939 -9.7162
-5.0393 0.5056 5.4985 9.0145 12.7272 16.2712
18.7691 20.4669 20.8007 21.0692 22.8231 24.7372
26.2719 27.0700 27.1297 26.4397 24.6579 22.9451
20.2776 15.9783 11.6148 7.2344 3.4470 0.7217
-1.3184 -2.7972 -5.3053 -7.7696 -9.4591 -10.6041
-9.4955 -7.5412 -6.4746 -6.8503 -8.0913 -10.2545
-12.9342 -14.2414 -15.1421 -15.9654 -17.2148 -19.6800
-22.3196 -23.9317 -24.2329 -23.3947 -20.5369 -16.2377
-11.1245 -5.9060 -1.9219 1.0608 2.9311 4.4211
5.6304 6.1255 6.5068 6.8387 7.6443 9.3142
11.4195 12.4274 11.9649 10.3053 7.0997 2.5543
-2.7295 -7.4241 -11.0884 -14.6212 -17.1955 -17.7605
-18.2286 -18.1736 -17.7139 -18.1083 -17.7624 -17.3019
-17.5294 -16.3676 -14.0479 -12.5486 -10.4358 -9.1948
-9.0839 -6.9291 -4.0453 -0.7139 3.5508 7.6832
11.5824 14.5063 15.3735 14.7152 12.9958 10.3758
7.4714 5.4304 5.0910 5.9339 7.9870 10.6107
12.3515 13.1543 13.2391 13.2111 14.0615 16.7038
19.8954 21.6809 22.2431 21.6417 20.1993 17.6790
15.1122 13.6838 12.5546 11.2521 10.4819 10.5826
10.1099 9.6185 8.4782 5.3733 2.6769 0.6704
-1.2961 -0.9259 2.8465 9.5326 17.4961 25.1780
32.5569 37.8687 40.1232 40.2565 37.8687 33.1490
28.1113 23.2358 17.4783 12.4033 10.5805 11.1530
12.8742 15.2517 16.9030 18.2829 20.3975 22.9467
26.3946 30.8235 33.8770 33.9740 30.8961 24.7657
17.1891 8.7277 0.0370 -8.4179 -16.5148 -22.1156
-25.1673 -25.7268 -24.2144 -23.5758 -23.9226 -24.4606
-26.1315 -28.6209 -31.1999 -33.7314 -35.0237 -34.4223
-32.5491 -29.2560 -23.6374 -16.3657 -8.1729 0.3407
6.6175 10.8468 15.1684 19.9795 25.7677 31.5914
35.5149 37.4235 37.5521 35.9493 34.6981 35.5792
36.2943 35.6388 33.4458 29.2687 23.7686 15.3035
5.0136 -6.3773 -21.7337 -38.6640 -54.3364 -69.2873
-82.0647 -91.3270 -97.1041 -99.3530 -99.6430 -98.6789
-95.5610 -90.2940 -83.2256 -74.7381 -64.1779 -53.9412
-45.5675 -36.7919 -28.9906 -21.6947 -14.5377 -7.3593
1.5785 12.3392 25.9399 39.1154 52.2620 66.7364
76.3828 81.9827 87.1705 90.4245 92.5345 95.1340
94.7815 89.3522 82.2223 73.2648 61.1792 48.8419
37.1349 27.1966 19.0037 10.1451 0.4110 -11.8275
-24.2768 -34.8006 -46.0657 -57.3047 -67.2262 -75.6820
-83.1420 -88.9508 -91.5662 -91.6417 -89.9177 -86.2180
-81.6419 -75.9142 -67.2151 -56.6465 -43.5913 -28.0027
-11.8837 3.6433 18.3433 33.6521 48.1843 61.6172
75.6598 88.4978 99.5624 109.5632 116.9169 122.0366
126.0347 128.9623 129.5647 127.4845 123.6645 115.5714
103.9949 91.0067 75.3650 56.8618 36.7876 17.5263
0.0889 -14.8778 -27.2990 -37.5702 -46.1780 -55.8655
-67.5567 -79.3299 -90.1475 -100.8830 -109.4758 -112.8334
-112.9630 -110.0884 -104.0214 -97.1777 -89.4809 -79.5985
-67.6286 -54.2628 -38.2090 -19.4989 -0.5099 18.2217
36.3817 52.0607 63.0489 68.8735 72.7606 74.9936
73.4160 68.6189 60.2367 48.2332 36.5392 25.5538
13.0506 4.9863 0.2750 -4.3310 -4.8261 -2.1940
1.3612 5.8907 13.4906 21.3944 28.6996 38.6845
47.1459 54.1173 63.4440 70.7073 76.8414 85.3559
92.8952 102.0093 113.3750 122.7446 131.4381 139.1760
143.7195 146.2173 146.5334 142.5017 133.9816 123.8149
112.3036 95.3165 74.4320 52.2179 27.9022 4.4033
-19.2980 -43.2426 -64.7891 -84.9995 -101.5838 -114.9952
-128.3377 -138.4466 -142.7915 -141.9916 -134.3926 -120.2502
-100.4874 -76.1214 -50.6617 -24.5568 2.1412 29.8833
57.6927 84.5323 112.1700 140.4027 166.9570 188.3291
205.4524 218.9356 229.3382 236.9567 239.8275 238.7189
231.9050 220.3089 206.8509 191.4758 172.5866 152.5021
133.5364 112.3489 87.5894 59.2458 27.7797 -9.2817
-50.9202 -93.5582 -135.2396 -171.2614 -202.0431 -225.8880
-241.5698 -253.6181 -262.1503 -268.8803 -273.4602 -273.4993
-273.5171 -272.1884 -264.7228 -253.3766 -237.1289 -210.6147
-180.7224 -153.1984 -124.5854 -97.6376 -68.5929 -35.1734
-1.7669 30.5542 65.4272 101.4621 132.1897 160.0839
177.7535 188.6997 199.0119 201.3503 202.3246 197.3662
185.7179 176.1311 167.5205 159.8489 141.5909 111.6865
78.2521 41.0070 -3.9144 -64.7283 -127.0807 -182.1297
-230.3545 -260.8323 -282.9168 -303.0088 -312.6413 -313.7685
-311.6455 -307.6791 -307.6409 -308.6423 -302.3245 -293.8687
-289.3942 -282.8917 -263.2781 -241.7717 -227.8521 -208.9471
-180.8982 -149.0796 -115.9846 -76.5120 -30.9893 18.9866
75.8173 138.0587 203.0609 263.2006 314.7326 351.3884
369.3079 373.0766 365.8674 354.6536 341.1079 325.3142
305.7509 289.0780 274.5738 246.7821 211.4624 171.6981
125.8704 83.7303 49.4101 11.1124 -36.8635 -87.1275
-144.5503 -198.2790 -236.4509 -270.9119 -305.1239 -335.8684
-350.9814 -346.9479 -333.0871 -312.7406 -291.9661 -274.8755
-261.5368 -245.1809 -214.4924 -169.8610 -136.9301 -122.6376
-102.2435 -74.9778 -49.3465 -24.0947 1.7799 29.9687
60.0381 86.3733 105.2271 121.6426 142.6549 166.6386
187.4597 202.0562 207.9143 205.8976 196.7900 189.8736
186.4666 181.7003 180.9143 176.8090 165.0050 144.2370
112.1723 76.4330 38.4616 -2.2231 -45.1855 -92.1507
-137.3341 -177.3838 -211.1390 -239.8341 -266.3539 -281.4427
-285.5536 -283.9229 -274.6727 -259.6548 -238.7087 -210.7978
-177.6478 -146.7345 -114.8591 -77.7250 -45.7955 -16.4440
18.2435 51.9008 84.2508 118.9999 150.0567 176.8497
198.5370 212.3875 215.8112 211.2854 206.5042 201.0991
194.4932 185.7614 175.5182 160.5795 141.7649 122.0505
98.3660 79.7500 71.0648 64.4290 59.3960 56.5205
53.0893 51.3411 47.1528 34.2840 13.9888 -12.5767
-42.1240 -70.9963 -98.3972 -122.1321 -139.9723 -148.6072
-146.5979 -138.2754 -129.1921 -122.4501 -117.8842 -114.0353
-107.3277 -96.8412 -85.0400 -70.4920 -51.5767 -28.5822
-1.7678 28.4480 59.5692 90.3267 120.1052 143.5109
161.8238 174.4549 178.0026 182.5265 188.8844 191.0988
194.0013 197.9145 197.0679 191.8466 182.6579 167.7574
148.8319 124.1451 94.7563 62.8137 27.6105 -9.8592
-50.9234 -94.8919 -138.3513 -177.8415 -212.9039 -237.3790
-248.2730 -254.0473 -249.2875 -229.0594 -203.5829 -175.1200
-138.0493 -96.2794 -49.5892 -3.7644 30.2593 61.0131
87.8732 105.7629 116.4489 128.1457 139.6737 147.8992
163.1101 173.9202 183.4342 200.5995 212.3279 224.1804
240.1577 250.4494 258.9490 266.0193 264.2021 258.1154
250.3300 237.4621 220.7706 202.6580 183.4453 162.0778
135.1328 104.8937 75.1524 45.8643 18.6583 -6.7782
-30.3479 -52.1937 -74.1943 -98.2237 -124.4340 -151.6793
-178.2998 -203.5143 -224.5788 -238.1208 -246.1113 -249.5817
-250.6660 -248.4069 -241.6051 -231.8365 -216.2350 -197.4157
-175.8888 -152.2687 -127.3945 -94.8748 -58.8353 -19.7087
23.4384 70.2469 118.5500 159.4817 194.5450 221.2504
241.2864 251.5137 255.4307 259.0315 257.0903 252.1477
233.6576 212.6938 195.8437 171.1700 145.3877 118.8399
97.2924 81.7887 62.6077 43.6187 24.7062 8.1694
-3.0873 -17.9421 -33.0010 -52.0814 -70.7739 -80.6292
-92.9003 -103.6796 -114.2669 -130.9995 -147.1391 -154.6038
-155.4700 -153.4886 -144.3503 -128.1912 -105.5631 -74.6947
-39.4337 -10.3918 12.4992 32.6406 46.4184 53.7954
57.2359 56.9944 50.2020 42.3644 36.2246 28.6853
22.0309 18.1633 19.9582 24.3767 28.5976 37.6427
49.1744 58.7519 66.5820 76.0812 88.9201 95.3051
93.0804 86.3308 73.7324 52.9309 28.5528 10.7778
-4.2420 -13.7832 -18.3472 -24.5308 -27.4044 -31.9442
-42.4205 -55.0981 -66.8872 -81.5220 -97.9217 -110.0614
-118.8724 -125.1269 -129.1072 -130.3939 -127.9380 -121.5727
-113.5308 -103.8918 -93.7941 -82.4144 -63.2259 -39.1396
-18.5553 -1.1346 13.5299 21.4300 22.4286 18.6832
15.2249 10.9994 3.4396 -5.9990 -18.2132 -27.2537
-34.1468 -40.7434 -39.4483 -32.0639 -21.9792 -5.5226
14.9759 32.9588 51.3314 69.9689 85.1798 97.5628
104.0009 104.3981 101.8713 96.4402 87.1499 77.4885
70.1329 64.6346 63.9763 66.8900 68.6457 67.2480
60.0938 41.7035 13.4941 -19.1990 -54.7723 -91.0104
-126.8541 -158.7072 -185.2364 -205.4738 -217.7767 -222.8293
-221.7636 -214.5413 -199.5393 -177.0212 -146.3252 -114.4228
-84.3981 -53.5240 -22.8560 5.4419 31.9664 57.9902
79.4527 98.8920 113.0605 117.4530 114.8488 101.9148
77.9739 49.8308 19.0425 -15.5061 -48.0380 -76.4292
-99.4600 -112.8453 -118.2206 -116.3633 -109.8058 -103.6950
-97.1105 -93.9320 -91.8080 -91.3372 -90.3041 -84.6911
-81.7653 -74.9011 -73.5426 -76.2885 -73.4979 -74.2196
-72.8797 -66.8034 -57.2800 -46.9651 -36.2538 -23.2284
-9.3023 4.6508 16.3625 25.5950 35.3869 41.5490
40.3127 44.6137 51.7185 53.1609 60.5398 74.0985
90.2306 110.8224 130.3549 148.4338 164.0028 176.0184
184.5003 186.0071 179.8999 167.4153 154.9987 142.2632
124.3931 100.3171 71.6136 39.6486 8.3643 -18.6777
-44.0116 -66.8942 -87.2649 -101.4754 -110.8534 -116.6827
-118.7218 -125.8070 -135.3602 -141.5690 -148.8164 -156.1786
-160.2596 -161.5706 -154.4900 -139.3285 -120.0776 -96.7139
-74.3003 -53.5762 -33.6175 -15.3698 1.0290 13.9798
24.7787 34.5006 44.5555 53.1026 60.0013 68.5215
76.4673 84.3813 92.5956 100.6598 108.7986 117.7775
129.7372 142.6423 154.6962 164.7631 170.2334 168.7882
158.4322 138.3290 108.2680 76.7860 48.7659 19.3156
-6.9339 -31.1134 -55.9046 -77.2600 -96.7757 -112.8585
-121.8914 -126.0872 -126.5599 -121.7236 -117.0384 -110.8436
-104.1072 -99.1860 -89.5359 -78.7258 -62.0902 -40.6108
-22.2820 -4.0371 13.3379 27.6472 37.9081 46.8096
54.0066 57.4154 60.8307 63.6941 66.5985 71.3844
75.1960 79.2285 78.9768 74.9274 70.4408 59.9812
49.1945 40.5298 29.8866 17.2519 4.1322 -11.3603
-32.0984 -52.6249 -70.7672 -89.0802 -106.2464 -120.5100
-132.3625 -141.3712 -147.2844 -148.1292 -141.9372 -131.3425
-117.0453 -99.0699 -81.2166 -63.9330 -47.6386 -34.6561
-20.7524 -7.3493 3.1903 13.2666 20.1635 22.8450
21.9592 16.9364 10.2736 7.7030 8.8974 12.9010
21.7951 32.9594 44.3308 52.8668 54.8919 54.4434
50.5815 40.3653 28.3263 14.8273 1.8895 -8.7593
-18.2408 -26.6388 -34.8466 -43.1150 -50.5899 -56.3073
-60.4163 -62.7659 -64.9934 -67.4018 -68.4563 -67.9249
-65.2340 -61.3087 -58.7819 -55.8682 -51.9755 -48.9416
-44.2433 -36.1148 -27.3382 -19.4428 -9.8075 -3.0300
2.2407 9.3781 13.2783 17.9887 25.0217 32.0770
37.0177 41.5799 47.7373 52.8365 59.4248 65.2643
70.6413 75.5820 79.0831 82.8546 84.2979 82.7353
75.3778 63.9701 48.5754 28.8592 8.5751 -13.4683
-32.9477 -48.7973 -63.4964 -72.5788 -76.0324 -75.7051
-71.9168 -67.5579 -61.6932 -54.2286 -46.6632 -37.7571
-29.1390 -21.0152 -14.0997 -11.1907 -9.3306 -8.1231
-8.0877 -8.2266 -10.8905 -12.8932 -11.3604 -8.4896
-4.1885 2.7922 10.8266 17.0316 21.0651 23.3699
23.3354 19.1798 11.2414 3.0169 -4.1187 -9.4734
-11.6244 -12.1615 -11.7205 -10.5242 -12.2370 -16.4048
-21.5040 -30.1640 -41.4450 -54.1310 -69.2441 -86.0261
-104.7400 -123.5639 -138.1632 -148.9584 -156.4054 -156.6441
-151.3854 -142.7683 -128.6912 -112.9385 -97.6661 -79.4613
-58.7987 -41.6176 -27.7987 -14.0675 -4.2225 2.4982
7.4752 10.2248 14.3777 20.4792 27.8096 36.3567
45.9370 54.2520 60.0179 63.7418 62.8057 59.3959
54.0767 45.5630 37.9165 31.1511 24.2962 17.5355
11.5160 7.1478 5.0005 5.0117 5.2531 5.5757
5.1739 3.2653 0.5427 -2.7272 -7.1756 -14.2319
-23.2043 -33.4820 -44.5624 -55.5916 -64.5714 -68.8558
-68.1211 -61.1300 -49.6785 -37.2181 -25.7386 -16.8287
-12.4083 -12.7626 -15.8162 -22.8464 -30.7017 -35.9389
-40.9235 -43.8447 -42.8741 -39.1082 -31.3349 -19.3314
-5.9041 7.3908 21.2637 34.9008 46.1137 55.2007
62.5898 66.6802 69.1314 71.1165 71.8213 74.4031
77.8697 79.7419 81.3988 82.0113 80.7116 77.5442
72.5513 66.8768 61.9883 57.3459 51.3059 45.7489
41.6501 35.5085 29.1142 26.5082 25.6243 25.9655
28.2676 30.2209 30.2190 26.4261 18.3497 8.0366
-3.7124 -17.1145 -30.5185 -42.0204 -52.6477 -62.8117
-71.6619 -80.0897 -87.9553 -93.1208 -96.4578 -98.2629
-96.0252 -91.3530 -85.9685 -80.0040 -73.2825 -63.3815
-52.7141 -42.7031 -30.6594 -18.5226 -6.5116 4.6994
14.3934 24.6897 33.7413 42.5001 51.3801 59.0285
66.0754 70.7178 72.3998 70.4893 64.3980 55.2784
43.6226 30.7837 17.9689 4.9127 -5.4395 -13.9914
-21.7246 -25.5996 -29.1250 -30.3194 -28.8294 -29.9101
-32.1002 -35.9454 -41.3952 -47.0856 -52.6314 -54.8393
-53.5741 -49.4100 -42.9514 -35.3833 -25.8897 -15.2577
-2.9810 10.1330 22.3938 34.0999 44.0345 50.5574
53.6455 54.6273 54.3252 53.4235 52.4482 52.2403
50.3718 46.8548 43.0955 35.8331 29.0593 22.7284
14.7919 8.3762 0.8444 -5.9863 -10.3909 -13.8715
-15.2580 -16.0710 -17.9740 -20.5642 -25.6578 -34.8549
-44.1974 -53.1567 -62.6922 -68.9476 -73.6785 -78.1969
-79.9535 -77.8398 -72.4236 -65.2955 -56.2477 -49.2716
-43.8330 -37.1599 -30.0943 -19.5872 -7.4709 5.6972
20.3720 33.7536 46.5291 58.2958 67.2746 73.1356
76.7141 74.9379 67.8974 58.8869 46.2885 33.1856
20.8567 8.1986 -1.3994 -9.0132 -15.1884 -18.0788
-19.1157 -19.6658 -18.6047 -15.3917 -10.3000 -2.7300
4.6872 11.9728 19.2323 24.8481 29.7813 34.2400
38.0003 40.1103 43.3559 46.1428 46.6985 47.3129
47.0565 45.9069 43.8714 41.4566 37.9489 34.3807
31.8138 29.8222 26.9346 22.0153 16.1590 7.4664
-2.7582 -14.2536 -26.9135 -37.6872 -48.4059 -58.4645
-65.1022 -67.6010 -65.5730 -57.8790 -45.1510 -29.1299
-10.7190 7.4579 24.5093 40.1333 55.2239 69.5304
82.4048 93.3109 100.0157 104.1909 105.3331 101.8189
95.3808 86.7431 74.1848 58.3212 40.4586 20.8766
1.6471 -17.5041 -38.2423 -59.9034 -78.8262 -94.6702
-109.6621 -120.7882 -128.8608 -136.8617 -140.2406 -139.9292
-135.9601 -127.3570 -118.0797 -105.9718 -91.3343 -76.3378
-60.9292 -44.9118 -29.0547 -14.2456 0.0926 13.5115
24.7402 34.8248 44.9916 54.0954 62.6080 71.3249
80.4762 87.9251 95.7403 105.3373 111.2319 118.0233
125.9281 131.9644 138.2169 140.3194 141.6210 139.6891
131.9466 120.5006 102.3900 84.1739 65.3491 44.8897
26.7921 8.8931 -9.0385 -26.9767 -45.6701 -62.4046
-77.3899 -93.4941 -105.7885 -115.6783 -125.0348 -128.9518
-130.6347 -129.6567 -122.8409 -113.4416 -102.2203 -87.7460
-73.2455 -59.3726 -45.9379 -36.1003 -26.6217 -17.5412
-9.9907 -1.3503 7.4477 17.2368 26.8963 36.1632
45.3230 53.8422 62.3045 68.9095 75.6637 81.4678
84.6509 88.4038 90.6406 90.9725 91.3361 88.8233
82.8989 76.1783 64.9813 49.6016 33.6820 13.1686
-8.3481 -28.0848 -49.9269 -69.3653 -83.2345 -95.1532
-102.9218 -104.9600 -105.2911 -102.7634 -97.1029 -90.3757
-82.5670 -73.9956 -65.2116 -57.1176 -50.7512 -44.9565
-38.8969 -31.0080 -19.8604 -6.5329 9.9619 26.0651
41.8868 59.2179 73.3156 84.5536 94.9432 104.3742
111.4398 116.3759 119.4490 121.1721 120.6425 117.7493
115.0285 109.9219 102.7602 95.5762 88.0406 78.6962
69.3696 61.1375 51.5685 43.4735 34.8731 24.8425
15.3107 3.9142 -7.6129 -19.3815 -31.4447 -42.5774
-52.5194 -59.6652 -65.3789 -69.2082 -70.5956 -71.2455
-71.8096 -72.4175 -72.7933 -72.8735 -72.4688 -71.9915
-69.5812 -64.4457 -57.6234 -48.2091 -38.0881 -27.3554
-15.2223 -3.1740 9.5456 22.1710 33.5573 43.7147
51.7742 57.6678 61.5456 62.9432 62.4546 60.5945
56.3447 51.3322 45.7845 39.1291 32.7767 26.0216
19.6693 14.0591 10.0601 7.0419 3.0644 -0.0284
-2.4656 -5.0931 -8.0339 -10.8375 -12.9382 -15.0837
-15.4529 -13.5536 -10.4031 -4.3902 3.7887 12.2324
20.4057 28.6377 37.1196 44.0668 49.0271 53.2927
55.6777 54.9393 53.5165 52.2130 50.6466 50.8237
53.1323 55.3775 58.2063 62.2827 65.5031 68.4187
71.7352 74.1864 75.0554 75.6390 75.5113 73.4153
69.3706 64.9641 60.7274 56.7022 54.7135 51.0669
47.6991 45.2432 39.0559 33.4932 27.7078 19.1093
11.1822 4.0783 -3.8526 -11.5559 -17.6966 -24.3306
-31.1780 -37.0334 -42.4357 -46.2967 -48.8402 -49.0472
-47.1386 -44.1606 -39.4055 -34.2923 -28.7586 -23.3964
-19.6399 -16.6861 -15.8087 -16.3905 -17.4320 -20.7019
-23.6389 -25.6874 -27.8179 -28.8771 -28.9918 -28.1778
-27.3760 -26.0912 -24.9210 -23.5430 -22.2246 -20.4596
-16.5548 -14.6397 -11.6495 -7.5218 -6.0720 -3.0641
-0.1253 2.2271 5.0019 7.2667 10.5263 13.6302
16.8534 19.1601 19.3858 18.0599 13.8147 6.9925
-1.8661 -11.1126 -19.7055 -27.3277 -33.0162 -37.9989
-40.9499 -41.5355 -41.6008 -38.8530 -33.3342 -26.7134
-17.9163 -7.3282 1.5118 8.8123 15.8005 19.2858
21.4116 22.8866 21.4386 19.0853 15.3707 10.3283
5.5489 1.0455 -3.0048 -6.5050 -9.3096 -12.7707
-16.9589 -21.0633 -25.4241 -28.2958 -29.2366 -28.6446
-24.6708 -17.0383 -8.0920 1.5348 12.8297 23.8179
33.0774 42.8012 51.9032 59.4191 66.5192 71.8441
75.6295 77.8710 77.5055 74.4659 68.9825 61.2792
52.3077 43.5424 34.6129 25.6135 16.9349 8.6618
0.4978 -7.8153 -15.3826 -22.3307 -28.2663 -33.4578
-38.1421 -39.8177 -39.6163 -38.1235 -33.0038 -25.9056
-17.5962 -7.5385 3.1708 13.0215 22.5803 32.0486
39.1422 44.1174 46.5174 46.7225 45.2036 42.1314
39.7408 38.0802 37.6373 37.5785 37.1468 36.2032
33.3175 28.7106 23.1657 16.9494 9.6778 2.9655
-2.2195 -6.4190 -8.6651 -9.8408 -9.7084 -7.9201
-6.1831 -3.6116 -0.6988 1.8745 4.2204 6.0945
8.6641 10.1186 10.9158 12.7116 13.0883 13.2813
14.7386 15.8556 16.5567 16.4345 15.2541 13.1264
9.7614 6.0067 1.8156 -2.7102 -7.1689 -12.2037
-17.7058 -23.5957 -30.1214 -36.0346 -41.4145 -47.4312
-52.1752 -55.8245 -58.8613 -59.6408 -58.8213 -55.8796
-50.8149 -45.1646 -39.4295 -33.7793 -27.6479 -22.0135
-16.8258 -11.0021 -5.2278 0.0476 5.0899 10.3159
14.5704 18.4706 22.3660 25.5790 29.1333 31.8959
34.6371 38.9326 42.9680 46.3591 49.7231 51.6112
51.8200 51.1095 48.1566 44.8989 41.6113 35.8687
30.1028 23.2097 14.5077 6.1563 -2.7768 -11.4033
-18.4372 -25.5765 -31.4981 -34.6645 -38.7577 -41.5847
-42.0136 -43.5175 -43.9063 -41.9698 -40.3512 -37.8841
-32.3364 -27.1812 -22.6284 -15.8080 -9.0380 -3.8987
1.9986 8.1776 12.1131 14.5140 16.5317 16.9317
15.8492 14.8916 13.6711 13.5266 14.3900 14.1196
14.9522 16.1409 15.8743 16.6388 18.1055 18.0970
18.7590 21.2382 22.2872 22.8848 23.8246 23.3230
21.8256 19.7277 18.2723 16.9921 15.2886 14.2462
12.4607 9.8490 6.8868 3.2449 0.0440 -3.0720
-5.7163 -7.3638 -8.5992 -8.9750 -8.4584 -6.6459
-4.6832 -2.5807 0.2267 1.6318 2.8980 4.6620
5.9646 7.4275 8.7673 8.9249 7.7016 5.5617
1.3781 -4.0493 -9.0180 -14.1993 -19.2221 -23.5101
-28.2280 -32.9039 -36.5943 -40.0246 -42.7509 -44.9364
-46.9429 -47.9732 -48.2734 -48.3070 -48.0823 -46.7658
-43.9239 -39.5836 -33.6574 -25.8216 -16.1370 -6.1194
4.7568 15.6340 24.4973 32.4906 38.6695 42.2984
44.9808 46.5715 46.4344 44.5948 41.8116 37.9795
32.7963 27.5535 21.6860 14.9700 8.4825 1.3656
-6.4124 -14.2090 -22.4988 -30.1640 -37.4730 -45.3171
-51.3422 -56.0955 -60.7099 -64.3285 -66.8217 -68.5289
-69.5620 -68.8823 -67.3094 -65.7756 -63.8587 -61.7878
-58.7408 -53.9931 -48.6552 -41.6055 -32.5063 -23.7372
-14.4647 -5.4784 1.8865 8.9270 13.9740 17.9096
22.7011 26.6777 30.5480 35.0300 38.2187 40.5068
43.4559 44.1654 42.8955 41.3562 37.0056 32.0192
26.3951 19.3649 13.8834 7.5851 1.0043 -3.5625
-8.3932 -12.2785 -14.4491 -15.4896 -14.2710 -11.2016
-6.6618 -1.1850 4.4727 10.2833 15.8562 20.7838
25.1781 27.8587 28.9748 30.3025 31.0987 31.4670
33.0446 35.5443 38.7107 43.1516 47.4826 50.5846
52.8792 53.5235 51.7687 47.8182 41.9740 34.6510
25.8987 16.1954 7.1465 -1.1004 -9.4807 -16.6927
-22.5267 -28.4352 -33.6985 -38.2085 -42.1543 -45.3067
-48.0657 -48.8601 -47.3599 -45.0131 -41.3889 -37.2799
-33.6828 -29.4441 -25.1543 -20.9110 -15.9927 -10.3060
-3.9593 2.3921 9.7486 17.1405 24.4365 32.0606
38.1127 43.1531 46.3251 46.6496 44.7969 40.4193
33.5821 25.9105 17.7456 8.7769 1.2041 -5.4774
-11.5799 -15.9742 -19.5229 -22.4478 -24.6706 -26.3461
-27.8034 -28.3302 -28.6603 -29.1871 -28.8356 -28.3079
-27.0343 -25.7494 -24.0581 -21.1603 -18.6065 -14.9655
-10.3465 -6.3540 -3.9904 -3.4375 -4.1890 -6.5853
-9.6724 -13.6612 -18.7194 -23.8773 -29.0791 -34.0460
-38.3750 -42.2370 -45.8006 -48.3385 -49.8938 -50.3758
-49.2159 -47.3614 -44.7647 -41.2264 -37.1127 -33.2946
-29.9622 -26.6569 -25.1651 -24.1302 -22.8379 -22.9638
-22.7233 -21.8561 -21.5569 -21.2184 -20.3140 -19.1429
-18.1145 -17.5448 -17.4880 -17.5225 -18.1752 -19.6120
-20.7383 -22.3243 -24.2609 -25.7499 -27.4329 -28.5797
-28.8986 -28.4306 -27.4301 -25.7015 -23.0834 -20.9426
-18.4298 -15.6485 -13.1097 -10.5894 -8.4692 -6.2762
-4.2297 -2.0106 0.4947 2.9972 4.7576 7.0736
10.2922 12.7052 16.4692 21.1992 25.0369 28.3431
31.0675 32.6722 32.9211 32.2516 30.7477 28.4214
24.9445 20.5362 15.4397 10.0179 4.4917 -1.0383
-5.8700 -10.0527 -14.0069 -17.5929 -20.1495 -22.7686
-25.4949 -27.5321 -30.0011 -32.5475 -34.5987 -36.8654
-38.7553 -39.6625 -39.8770 -38.6229 -36.0123 -31.8846
-26.1542 -19.9669 -13.3870 -6.9284 -1.0441 3.9525
7.7557 10.9174 13.7397 16.2087 18.5676 20.9097
22.3316 22.8621 22.6197 20.6309 17.3825 12.9620
7.7574 2.2517 -4.1286 -10.2992 -15.7555 -20.6160
-25.0812 -28.5189 -30.8695 -33.3058 -34.6382 -36.2112
-38.9878 -41.0726 -43.7309 -46.9523 -49.1844 -50.1168
-49.6189 -47.7747 -43.3757 -37.5464 -32.0799 -25.7285
-19.2400 -14.0354 -9.0127 -4.5438 -1.5751 0.6552
1.6519 1.2295 0.2291 -1.6003 -3.7019 -4.6716
-5.2096 -5.2273 -3.9947 -2.4889 -0.2689 2.7520
6.4228 10.4274 14.6940 19.4454 23.1693 27.1366
31.5020 34.9770 38.5415 41.7443 44.4687 46.4836
47.5810 47.9679 47.1530 45.5045 42.9199 39.7535
36.5424 32.3308 28.1388 24.4549 20.2126 16.7254
13.5740 10.1185 6.9596 3.1890 -0.6505 -4.2029
-8.4612 -12.4816 -15.9380 -19.8428 -23.1593 -25.4241
-27.5704 -29.4380 -30.1588 -30.7033 -30.9933 -30.2063
-29.5565 -27.9258 -24.9776 -20.8825 -15.4141 -9.4860
-3.6278 2.0998 8.2004 13.3322 17.7834 21.5577
24.1954 26.6839 28.0639 29.2685 30.9123 31.8064
32.5066 33.2339 32.5635 30.9971 29.2013 25.4643
20.8275 16.7371 11.9288 6.6469 2.3663 -1.1507
-3.8975 -5.5124 -6.0961 -5.6355 -5.2971 -5.2635
-4.9997 -5.3335 -6.4756 -7.4752 -9.1469 -11.5721
-13.4341 -15.4909 -17.5068 -19.0452 -20.6153 -21.6550
-22.3235 -22.6135 -22.0951 -21.2979 -19.6821 -17.4929
-15.4584 -13.4389 -11.6608 -10.2911 -9.7103 -9.7010
-10.0208 -10.3928 -10.5010 -10.3276 -9.5695 -8.5831
-7.3579 -4.8256 -1.9380 0.5841 4.5066 8.6194
10.9112 12.7116 13.9731 13.2374 11.6608 9.4295
5.7093 1.6199 -3.0831 -8.4928 -13.8503 -18.6829
-23.4800 -28.5652 -32.3638 -35.9358 -38.8560 -40.9725
-44.1072 -46.7095 -49.3118 -51.9859 -53.2409 -53.9290
-53.4153 -51.5440 -49.3659 -45.5702 -41.3335 -37.1610
-31.3234 -26.6111 -22.8247 -17.5754 -13.2930 -9.3844
-3.9663 0.9697 5.8060 11.4767 16.6617 22.0574
27.9921 32.1682 36.4395 40.9037 43.1722 45.7008
47.4761 47.7763 48.0961 47.2457 44.4737 40.9139
36.9242 32.0655 28.3938 25.3029 22.5962 21.3841
20.0713 18.8303 17.7953 16.1552 13.6667 11.1380
7.7880 3.5204 0.4277 -3.2562 -7.8510 -11.1525
-14.3861 -18.0354 -19.7053 -19.9720 -19.9114 -17.4015
-13.2915 -9.3969 -4.3089 1.1343 5.9557 11.0885
15.8278 20.0943 24.4197 27.9674 30.8764 33.6018
34.9108 36.1434 36.8576 35.8162 34.5397 32.4819
30.3328 27.4871 23.8676 20.8177 17.2719 14.0803
11.4305 8.5979 6.6566 5.8091 5.1163 4.9233
5.4426 5.7270 6.5559 7.6141 8.1251 8.7684
9.0807 8.6966 7.5432 5.8062 3.6281 1.3316
-1.6110 -4.7764 -7.5167 -11.3955 -14.7660 -17.0075
-19.6285 -22.4032 -24.4862 -25.4764 -26.7305 -27.4121
-27.2442 -27.1650 -26.8778 -26.5450 -26.3044 -26.7669
-26.6504 -26.0275 -25.3320 -23.2015 -20.7894 -17.9289
-14.1061 -10.6693 -7.2755 -3.3100 0.2684 3.8441
8.0221 11.1866 13.8234 16.4798 18.5292 20.4629
21.4932 21.7906 22.1020 22.0582 22.2819 22.8479
23.3728 25.5555 28.8683 31.2309 33.2374 35.1134
36.6154 37.4266 38.0159 38.6368 39.3146 39.7780
39.0825 38.3608 37.2783 34.8597 32.0252 29.4341
26.5642 23.2141 20.4338 18.2818 15.9788 14.0571
12.8236 11.7131 11.0147 10.7742 10.4730 10.1578
10.3219 10.8385 12.2100 14.6249 17.1414 20.4924
24.4494 27.8619 31.2381 34.3550 36.4137 37.6967
38.1824 37.0188 34.8044 31.6557 27.3453 23.2353
19.0619 14.8037 11.1842 8.0393 5.3503 3.2897
2.1922 2.0505 3.0864 4.6267 6.0420 7.9124
9.8228 11.1515 11.6521 11.4871 11.0964 10.3841
9.4218 8.6135 8.4484 8.5230 8.5202 9.2409
10.2358 10.9108 11.6054 12.1509 12.0175 11.0767
9.7201 7.8479 5.7901 3.9048 1.3771 -1.3091
-3.6252 -6.2629 -8.8018 -11.1132 -13.4656 -15.3891
-16.9826 -18.3224 -18.9266 -18.7607 -17.8917 -15.9412
-13.5049 -11.0219 -8.1427 -5.8966 -4.0636 -2.1093
-0.5028 1.2296 2.8911 4.5703 6.1031 7.1520
8.5618 10.2438 11.3571 12.0321 12.1608 11.6190
11.0465 10.1048 9.1118 8.4153 7.5948 6.5571
5.0680 4.1757 3.8690 3.2927 2.8321 2.1235
1.3561 -0.0079 -2.3007 -4.7986 -8.6913 -12.9653
-16.8403 -21.3578 -25.4276 -28.6173 -31.0779 -32.6760
-33.3138 -32.9306 -31.7437 -30.0728 -28.3778 -26.4990
-24.8254 -23.2646 -20.7099 -17.4941 -13.6088 -8.6103
-3.2818 2.2398 8.2956 14.3496 19.7239 24.1508
27.4552 29.3106 29.2500 27.1782 23.8506 19.6390
14.9677 10.8605 7.0946 3.3306 0.4859 -1.4013
-2.9724 -3.8703 -4.3971 -4.5398 -3.8899 -3.3706
-2.7235 -1.4685 -0.4149 0.6265 1.4881 1.1832
0.8960 0.9034 0.4083 0.5957 1.1374 1.4582
2.7849 4.7746 6.8576 9.8300 13.0710 15.7012
18.2690 20.7902 22.6978 24.1542 25.4959 26.1094
26.1718 26.3518 25.8688 24.1467 21.5043 18.1906
14.0993 9.5380 4.9218 -0.0003 -5.0408 -10.1223
-15.5171 -20.7319 -25.3696 -29.5700 -32.6600 -34.2889
-35.1383 -34.8763 -33.6819 -32.0857 -29.8974 -27.1627
-23.6299 -19.2356 -14.4580 -9.7551 -4.7808 0.1161
4.6969 9.4716 13.6543 17.4574 21.0350 23.6979
25.7659 27.0078 27.7202 28.1034 27.8246 27.0777
25.7920 23.8078 21.2475 18.1259 13.7595 9.0313
3.6934 -2.8062 -9.0486 -15.7226 -22.5822 -28.6324
-34.5671 -39.8108 -44.4783 -48.9631 -51.8731 -53.4022
-54.3076 -54.3514 -53.2158 -51.6317 -49.7697 -47.1963
-44.2854 -40.6594 -37.1303 -33.7961 -29.8577 -25.7944
-21.9278 -17.8738 -13.0636 -8.4754 -4.4848 -0.3133
3.6857 6.6180 8.6795 10.7438 11.6958 11.6687
11.9578 11.8552 11.6314 11.4803 11.1615 10.5284
9.5176 8.5060 6.4389 3.5476 0.8045 -2.7563
-6.4504 -9.8984 -14.0914 -18.0596 -22.2470 -26.7224
-30.7224 -35.0104 -38.4146 -40.8276 -43.2854 -45.3926
-46.3445 -46.3958 -46.4350 -45.3572 -43.4253 -40.4687
-35.9690 -30.9966 -25.0303 -19.2980 -14.0738 -8.9215
-4.9122 -1.3878 1.2191 2.8741 3.8568 3.4400
2.4853 0.9841 -1.6788 -4.2354 -6.3529 -8.4526
-9.5883 -10.6820 -11.9817 -12.5094 -13.1920 -13.9770
-14.5663 -14.5542 -14.1402 -13.2591 -11.1930 -8.6700
-5.1549 -1.2128 2.2725 6.4971 10.5502 13.3604
16.1286 18.3561 18.8437 19.5691 20.4511 20.3663
20.7299 20.7560 20.2273 19.2213 17.6586 16.7672
15.5551 14.0940 13.3332 12.1453 10.3840 8.9855
7.4153 5.0657 3.4172 2.6629 1.3221 0.6294
0.5445 0.0457 0.4000 1.3361 3.0050 5.3062
7.5989 10.3951 12.8025 14.9153 17.1353 18.6056
19.6098 20.8695 21.7823 22.2466 22.7398 22.8619
22.9859 23.2768 24.0097 25.2404 26.4693 28.0208
29.4631 30.1391 29.9321 29.1135 27.5163 25.2030
22.8618 20.3621 18.2689 16.5794 14.5626 12.6624
10.6494 8.3557 5.7683 2.7474 -0.5281 -4.2530
-7.9108 -11.2935 -14.0766 -15.8062 -16.1745 -14.7899
-12.3807 -9.1714 -5.1789 -0.6121 4.1169 8.9075
13.9312 18.9847 24.1035 28.9873 33.4590 36.9098
39.1708 40.5908 41.1782 40.9871 39.9791 38.1246
35.4916 32.7886 29.7005 26.1285 22.4027 18.3934
14.4140 9.9674 5.4304 1.1890 -3.2305 -7.3507
-11.1194 -14.6616 -17.4811 -19.7039 -21.3962 -22.1729
-22.3986 -22.1934 -21.4513 -20.4014 -18.4611 -15.6472
-12.7177 -9.1849 -5.0525 -1.3118 2.0354 5.3221
7.9962 9.9868 12.0874 14.1433 15.6557 16.9713
18.5843 19.8066 20.3744 20.7436 20.2299 19.1213
17.5082 14.7941 11.8785 8.6366 4.7681 0.5546
-4.1894 -8.6452 -13.1571 -17.8274 -21.3304 -24.4045
-27.2501 -28.8650 -30.0053 -31.2519 -31.7200 -31.6864
-31.7853 -31.3256 -30.9667 -30.3671 -28.8697 -27.8283
-26.3561 -24.3291 -22.9603 -21.6009 -19.7045 -17.5106
-15.3726 -12.7386 -9.4660 -6.3649 -3.2386 -0.1310
2.7995 5.4633 6.8610 7.8642 8.4087 7.4595
6.8227 6.4292 5.4773 5.1006 4.8954 4.1784
3.4884 2.5971 1.5491 0.6334 -0.6327 -1.4728
-2.0257 -2.7456 -2.9554 -3.5437 -4.3512 -4.7670
-5.4458 -5.5251 -4.5517 -2.8734 -0.7121 1.7829
4.6565 6.7339 8.4746 10.4299 11.7184 12.9892
14.6918 16.7850 18.6702 20.2003 22.1210 23.5699
24.2086 24.4995 23.9176 22.4193 20.4053 18.0398
15.1569 11.8889 8.5845 5.1486 1.7473 -1.3482
-3.6475 -5.5505 -7.5188 -8.6218 -9.5234 -10.9733
-11.8488 -12.3887 -13.2334 -13.6679 -13.7202 -13.5607
-13.4694 -13.4880 -13.1132 -13.2792 -13.7836 -14.0354
-14.7701 -15.3146 -15.0592 -15.0573 -15.3324 -15.0685
-14.9538 -15.2559 -15.4965 -16.1408 -17.4079 -19.0144
-21.0694 -23.8834 -27.0414 -30.0446 -33.0916 -35.7331
-37.9596 -39.8692 -40.9918 -41.7908 -42.1815 -42.2505
-42.1293 -41.5317 -40.6720 -39.3741 -37.3621 -34.2759
-30.8820 -27.0024 -22.0467 -17.2450 -12.3723 -7.5939
-3.4205 0.1794 2.8302 5.1928 7.3961 9.2151
11.0156 12.6817 14.2826 16.3572 18.2583 19.9114
21.6167 22.4260 22.8773 23.4311 23.7985 24.2861
24.8091 25.3434 25.7434 25.8077 25.9112 25.7695
25.0170 24.0054 22.7588 21.2669 19.2064 17.0693
15.3556 13.1542 11.0731 9.5132 7.6671 6.1948
5.0322 3.8061 3.0667 2.5100 2.6060 3.3417
3.7874 4.8065 6.2917 7.4964 8.6264 9.0637
8.7653 8.0110 6.4017 4.3710 2.6507 0.6880
-1.1050 -1.9796 -2.7432 -3.3623 -3.9991 -4.6304
-5.2364 -6.3068 -7.3781 -8.5017 -9.5739 -10.1623
-10.1483 -9.9637 -9.5022 -8.4794 -7.6943 -7.0761
-6.4468 -5.9582 -5.5098 -5.3391 -5.3494 -5.2646
-5.2571 -4.9476 -4.3854 -4.2203 -3.7420 -3.0875
-2.8936 -2.2586 -1.3440 -0.4899 1.2424 3.3058
5.3039 8.1672 11.4642 14.4040 17.3521 20.5372
23.2355 25.2699 27.2401 29.1328 30.3411 31.1840
32.2926 32.8213 32.3569 31.4628 30.0949 27.6782
24.4036 20.6713 16.1054 10.8617 5.1172 -1.0757
-7.5996 -14.1347 -20.1514 -25.9210 -31.3065 -35.4920
-38.5427 -40.9651 -42.1707 -42.5446 -42.4663 -41.4975
-40.5549 -39.2141 -37.5498 -35.8855 -33.9089 -32.1774
-30.3360 -28.4619 -26.3128 -23.7254 -20.6150 -17.0822
-13.4282 -8.7429 -4.2209 -0.3972 3.8899 7.5663
10.8595 14.1844 16.5423 18.3549 19.5521 20.1798
20.1798 20.3205 19.8991 19.0879 17.7994 16.4222
15.1160 13.6493 12.0437 10.4046 8.7533 6.8811
5.1702 3.3147 1.1031 -0.1575 -1.1123 -2.4297
-2.8157 -2.9705 -3.4852 -3.3798 -2.8568 -2.4111
-1.6624 -0.4624 0.2359 0.7366 1.2270 0.9119
0.7618 0.2928 -0.7217 -0.9846 -1.7669 -2.6443
-2.5920 -2.9762 -3.2830 -3.0983 -3.1319 -3.6177
-4.4997 -5.3724 -6.7170 -8.7374 -10.9155 -13.0963
-15.3061 -17.0916 -17.7909 -18.1583 -17.8003 -15.8581
-13.5243 -10.6871 -7.3762 -4.5996 -2.3245 -0.4104
0.9108 1.4423 1.8283 2.0175 1.8805 2.3355
3.2110 4.0427 5.0496 6.4454 7.7480 8.3885
8.5144 8.1750 7.1960 5.0142 1.9466 -1.1619
-4.7199 -8.5371 -11.6858 -14.1510 -16.1808 -17.3100
-17.3351 -16.6778 -15.4387 -13.7716 -12.0588 -10.6033
-9.1880 -7.7558 -6.3899 -4.6473 -2.8319 -0.9774
1.1354 2.9582 4.6523 6.3250 7.8476 9.3319
10.7203 11.9659 12.9002 13.3589 13.3906 13.5211
13.3505 12.5710 11.9873 11.3384 10.2876 9.0289
7.8429 6.9040 6.0471 5.4187 4.9478 4.6476
4.4713 4.1441 3.8075 3.3245 2.7175 2.1571
1.6359 1.2378 0.9404 0.5599 0.0620 -0.4247
-1.5249 -2.9626 -4.1384 -5.7272 -7.4633 -8.9234
-10.3462 -11.7513 -13.1061 -14.3779 -15.5191 -16.1009
-15.9266 -14.7993 -12.6250 -9.9742 -7.0195 -4.0219
-1.5744 0.5384 2.3677 3.6348 4.7556 5.5667
5.9527 6.5868 7.2301 7.9051 8.8608 9.7951
11.0090 12.0225 12.5251 12.6603 12.0869 11.1815
10.0328 8.8142 7.7550 6.8515 6.2305 5.8977
5.9126 6.4216 7.3400 8.2463 9.2561 10.0663
10.4803 10.4141 9.8519 9.0976 7.8938 6.7116
5.6281 4.5568 4.1839 3.9489 3.3997 3.4109
3.4044 2.9820 2.8999 2.8188 2.5671 2.5102
2.6444 2.4337 2.2072 2.2901 2.2864 2.3908
2.5428 3.1218 4.5670 6.5483 8.9492 11.6046
14.1920 16.5836 18.5714 19.9914 20.8809 21.2529
21.2753 20.7690 19.8208 18.6469 17.0255 15.3444
13.5775 11.6475 9.9412 8.5864 7.7165 7.1403
6.9780 7.2699 7.7538 8.7160 10.0148 11.2260
12.4483 13.5383 14.3681 15.0366 15.3508 15.1597
14.4119 13.2147 11.5718 9.6110 7.6773 5.7146
3.6382 1.3697 -1.0312 -3.4862 -6.0866 -8.6796
-11.1998 -13.5513 -15.5019 -17.0170 -17.9168 -18.1377
-17.5531 -15.9774 -13.6026 -10.3141 -6.4438 -2.4951
1.5887 5.4366 8.7848 11.8887 14.5479 16.9115
19.3758 21.5846 23.5986 25.6647 27.5360 28.7332
29.3439 29.4940 28.6688 26.9327 24.5943 21.8727
18.9356 15.8019 12.9451 10.2924 7.7517 5.8319
4.1564 2.9750 2.5573 2.3177 2.5983 3.3265
4.5209 6.1302 7.2407 8.3129 9.2826 9.6360
9.9231 9.9269 9.7879 9.7189 9.4448 9.4094
9.6257 9.8811 10.2755 10.7305 11.1734 11.2881
11.2583 11.1706 10.6559 9.6937 8.0387 6.0126
3.9194 1.3777 -1.1304 -3.0977 -5.1238 -7.0203
-8.2921 -9.7177 -11.2720 -12.8458 -14.7190 -16.4467
-18.2649 -20.0457 -21.3669 -22.6285 -23.7594 -24.4979
-25.2876 -25.8946 -25.7818 -25.5394 -24.9566 -23.8658
-22.8989 -21.7409 -20.3115 -18.8729 -17.4174 -15.5368
-13.2002 -10.9541 -8.4134 -5.3850 -2.1571 0.7557
3.9277 7.7281 10.8077 13.8128 16.9055 19.1181
20.6602 21.5656 21.8574 21.5301 20.6984 19.7343
18.5586 16.7712 14.9717 13.0948 10.4440 8.0991
5.9658 3.1658 0.6437 -1.0719 -2.6728 -4.3492
-5.1986 -5.7609 -6.8751 -7.9007 -9.1305 -10.6233
-11.6759 -12.7240 -13.8055 -13.9864 -13.6601 -13.1715
-12.2289 -10.9702 -9.4662 -8.0621 -6.6961 -5.6416
-5.2565 -4.8332 -4.6234 -4.6859 -4.5116 -4.5983
-4.5778 -4.3148 -4.8752 -5.4682 -5.7293 -6.7214
-7.5624 -8.3456 -9.6267 -10.8602 -12.4910 -14.3063
-16.1618 -18.5422 -20.9813 -23.1789 -25.8008 -28.4376
-30.4264 -32.3051 -33.8016 -34.8095 -35.3792 -35.2608
-34.9615 -34.2221 -32.8721 -31.4241 -29.6609 -27.4614
-25.2489 -23.0401 -20.8126 -19.1166 -17.6444 -15.6808
-13.6612 -11.7815 -9.6026 -7.2241 -4.8558 -2.6656
-0.7505 0.9968 2.0942 2.3748 2.5949 2.8419
2.7189 2.5855 2.4988 2.2872 1.9990 1.5263
1.1422 0.8177 0.3608 0.2116 0.3077 0.3356
0.7794 1.3734 1.6130 1.7305 1.5216 0.7738
-0.3879 -1.7996 -3.1832 -4.4298 -5.5608 -6.3347
-6.9230 -7.4545 -7.6820 -7.6074 -7.1785 -6.5315
-5.4648 -4.1101 -2.9828 -1.8733 -0.8542 0.0157
0.7952 1.3798 1.7891 1.9262 1.7779 1.3826
0.5444 -0.6267 -1.9060 -3.6309 -5.7698 -8.1819
-11.0033 -14.2536 -17.7379 -21.3929 -25.1168 -28.5415
-31.8747 -34.5833 -36.6066 -38.1152 -38.7697 -39.0821
-38.6644 -37.6304 -36.3763 -34.5908 -32.4296 -30.2403
-27.9951 -25.5691 -23.1570 -20.5323 -18.1492 -15.9525
-13.4761 -11.4686 -9.7950 -8.1372 -6.6855 -5.5601
-4.7667 -4.2138 -3.9070 -3.6786 -3.5658 -3.1304
-2.4852 -1.9910 -1.1052 -0.2474 0.2523 0.8341
1.4784 2.0453 2.4453 2.8583 3.7842 4.7249
5.7962 7.7701 9.7309 11.6218 14.0972 16.3331
18.1699 20.0263 21.0538 21.4668 21.8379 21.2523
20.2416 19.2841 17.8808 16.3508 14.8133 13.2515
11.4138 9.6385 8.1467 6.5159 5.3122 4.3789
3.4344 2.5859 1.4456 0.2233 -1.1455 -2.7016
-4.1422 -5.7496 -7.2088 -8.3864 -9.6013 -10.5076
-11.2750 -12.0050 -12.4488 -12.6148 -12.4032 -11.7374
-10.7603 -9.5659 -8.2196 -7.1650 -6.2541 -5.5129
-5.1362 -4.8602 -5.0458 -5.5707 -6.2336 -7.3609
-8.7697 -10.2625 -11.7226 -12.9394 -14.0247 -15.0102
-15.5883 -15.7608 -15.8857 -15.8755 -15.8680 -16.0116
-16.0685 -16.1244 -15.9473 -15.4988 -14.6755 -13.4345
-11.7609 -9.6975 -7.4654 -4.4846 -1.2753 1.7223
4.7097 7.3250 9.2513 10.5734 11.9468 12.6526
12.7347 13.0601 12.9482 12.7020 12.6582 12.5640
12.7589 13.5598 14.5248 15.3947 16.7252 17.7537
18.5163 19.6175 20.3280 20.9368 21.7536 22.4230
22.7288 23.0990 23.5353 23.3582 23.3992 23.5353
23.3330 23.6733 23.8178 23.6313 23.6696 23.4188
22.9563 22.2551 21.1847 19.7554 17.8925 15.7284
13.5019 11.3732 9.0357 6.8213 4.9855 3.1151
1.6074 0.6088 -0.2536 -0.7096 -0.8895 -0.8933
-0.5641 -0.4038 -0.3059 -0.3096 -0.4896 -1.0863
-2.1763 -2.9250 -3.6205 -4.1585 -4.0280 -3.5143
-2.9129 -2.2043 -1.5591 -1.2131 -0.8066 -0.4514
-0.1633 0.1416 0.2395 0.2721 0.2814 0.1481
0.0017 -0.0654 -0.1783 -0.1176 0.0008 -0.0748
-0.0962 -0.1121 -0.2463 -0.4477 -0.7881 -1.3783
-2.3918 -3.7074 -4.9279 -6.5260 -8.1903 -9.1460
-10.0793 -10.8029 -10.8560 -10.8719 -10.8290 -10.3637
-9.7866 -8.6491 -7.1088 -5.9144 -4.3965 -3.0790
-2.3415 -1.4063 -0.7098 -0.5411 -0.7602 -1.3709
-2.0385 -2.8087 -3.9042 -5.0194 -6.2613 -7.8314
-9.3233 -10.8449 -12.6715 -14.5698 -16.4887 -18.3823
-20.3702 -22.4410 -24.5529 -26.9211 -29.1906 -31.4208
-33.6148 -35.2586 -36.4445 -37.0422 -36.7830 -35.7527
-34.1649 -32.2610 -29.9114 -27.4685 -25.0863 -22.4019
-19.8686 -17.4109 -14.8897 -12.5215 -10.2399 -8.1961
-6.3379 -4.6531 -3.3468 -2.3426 -1.4634 -0.7818
-0.1655 0.4433 0.8936 1.3617 1.7048 1.8559
2.0712 2.3892 3.0624 4.1626 5.8502 8.2464
11.0370 14.2631 17.7017 21.1534 24.6657 27.6913
30.3430 32.9453 35.0702 36.9181 38.5927 40.0733
41.3181 42.4192 43.1754 43.2891 43.4280 42.8080
41.4141 39.8980 37.8915 35.8524 33.7116 31.4618
29.5671 27.8870 26.2534 24.9322 23.8712 22.8782
22.2432 21.7295 21.1374 20.9575 20.9379 20.6348
20.5285 20.3961 19.7752 19.3006 19.1962 18.7831
18.3104 18.1239 17.6353 16.9593 16.2461 15.5766
15.0041 14.4736 14.1789 13.8713 13.5692 13.0601
12.2340 11.4787 10.7477 10.2135 9.9543 9.9459
10.1976 10.5808 11.1934 11.9868 12.8111 13.6316
14.3392 14.7569 14.8343 14.4642 13.7332 12.8176
11.4572 10.0418 8.9640 7.8675 6.9127 6.2228
5.3985 4.5062 3.7818 2.9818 2.2424 1.6065
0.9678 0.3179 -0.3189 -0.8047 -1.2755 -1.5618
-1.5944 -1.4434 -1.1935 -0.7525 -0.1725 0.2825
0.7794 0.8232 0.4699 0.3729 -0.5073 -1.8760
-2.7208 -4.0988 -5.7287 -6.9035 -8.4596 -10.3095
-11.8097 -13.7136 -15.8423 -17.5896 -19.3574 -20.8389
-21.8711 -22.4315 -22.4958 -21.8329 -20.5434 -18.9080
-16.8512 -14.7253 -12.3748 -9.9748 -7.6252 -5.2225
-3.0388 -0.8701 1.1886 3.2147 5.0533 6.7027
8.4276 9.8868 11.2071 12.2896 13.0839 13.5809
13.6863 13.4261 12.8695 12.2261 11.1912 9.8980
8.5106 7.0159 5.7498 4.8836 4.2794 3.8374
3.6127 3.3237 2.9516 2.5041 1.8365 1.2267
0.5806 -0.0591 -0.4451 -0.7919 -1.0213 -1.1695
-1.2684 -1.4679 -1.7271 -1.8054 -1.9621 -1.8120
-1.3551 -0.8889 -0.2698 0.2197 0.5749 0.8546
0.6840 0.4220 -0.0992 -1.1761 -2.1449 -3.5146
-5.1183 -6.2614 -7.3085 -8.2455 -8.6688 -8.8945
-9.3812 -9.6702 -10.1336 -10.7024 -11.1555 -12.0105
-12.3387 -12.3956 -12.5737 -12.0581 -11.3196 -10.5047
-9.3644 -8.2176 -7.2479 -6.2494 -5.5846 -4.8983
-3.7580 -2.7790 -1.5791 -0.7026 0.1113 1.1938
1.7915 2.5943 3.1108 3.3206 3.5919 3.4977
3.3663 3.1108 2.9224 2.8982 2.3966 2.1336
2.3621 2.0320 2.0795 2.7509 3.1742 3.8678
4.6604 5.1564 5.4790 5.7139 6.0244 6.2790
6.6389 7.3559 7.8799 8.2099 8.7013 9.0957
9.3502 9.5749 9.9917 10.2369 10.2956 10.4914
10.4196 10.4597 10.6108 10.7730 11.4816 12.2862
13.0228 13.9403 14.6964 15.1804 15.4489 15.3929
14.9911 14.3347 13.4974 12.3300 10.6424 8.9921
7.1795 4.9147 3.1199 1.2906 -0.6703 -2.1145
-3.3695 -4.3439 -4.8753 -5.0870 -5.1774 -5.1103
-4.9919 -4.9807 -5.1439 -5.5858 -6.0651 -6.8343
-7.5038 -8.0371 -8.7401 -8.8446 -8.8194 -8.8427
-8.5910 -8.4632 -8.7485 -9.1774 -9.4171 -10.0110
-10.8147 -10.8278 -10.4073 -10.1015 -8.8157 -7.1896
-6.0465 -4.2778 -2.7021 -1.5385 -0.0532 1.1412
2.2172 3.2335 3.9999 4.4064 4.5425 4.4679
3.9094 3.4311 2.8670 2.1836 1.8432 1.9094
2.1239 2.4222 3.2931 4.1005 4.9676 5.8655
6.7615 7.8962 8.6757 10.0286 11.3619 12.4910
14.0705 15.1856 16.0816 16.7585 17.1231 17.4550
17.3981 16.8303 16.4480 15.7226 14.2728 13.2378
11.7945 9.8187 8.4873 6.9386 5.0542 3.6743
2.1881 0.4883 -0.7825 -1.9098 -3.1470 -4.2202
-4.9111 -5.3326 -5.3857 -4.7442 -3.9116 -2.8580
-1.5928 -0.4702 0.9759 2.2822 3.5549 4.9572
6.0257 7.2695 8.1730 8.7063 9.2480 9.1566
9.0410 8.9235 8.1739 7.9995 8.0377 7.1799
6.8452 6.4648 5.2853 4.4173 3.1250 1.7562
0.9180 0.0397 -0.5458 -0.8144 -0.7995 -0.6372
-0.4079 0.0826 0.6532 1.0718 1.5762 2.1646
2.4946 2.7510 2.5860 2.2317 1.7356 0.6597
-0.4592 -1.7981 -3.2069 -4.5244 -5.9379 -7.1370
-8.0992 -9.1202 -10.1486 -11.0222 -11.9723 -12.6362
-13.1285 -13.5378 -13.4940 -13.3737 -12.8889 -12.1225
-11.5425 -10.5039 -9.2713 -8.2503 -6.8163 -5.5063
-4.5320 -3.2322 -2.6495 -2.6458 -2.5143 -3.2453
-4.2625 -5.3143 -6.6811 -7.8233 -8.9524 -9.8634
-10.3370 -10.6205 -10.8704 -10.9198 -10.7361 -10.8042
-10.7380 -10.4396 -10.5338 -10.5142 -10.5599 -11.1436
-11.7338 -12.5627 -13.6583 -14.5562 -15.4223 -16.0508
-16.4368 -16.8638 -16.7613 -16.3976 -15.9249 -14.6737
-13.4224 -12.5217 -11.3833 -10.4919 -10.0603 -9.8449
-9.9223 -10.0220 -10.2579 -10.5488 -10.5908 -10.8976
-11.3386 -11.5847 -11.9307 -12.2626 -12.5237 -12.9908
-13.4617 -13.7488 -14.3260 -15.0253 -15.3880 -15.7190
-15.8551 -15.7031 -15.4542 -14.9423 -14.2458 -13.4291
-12.5498 -11.5643 -10.6319 -9.9485 -9.3434 -9.1923
-9.3313 -9.5383 -10.2059 -10.9434 -11.6417 -12.2711
-12.4809 -12.3168 -11.8003 -11.0432 -10.0837 -8.9546
-7.8675 -6.8885 -5.9039 -5.0293 -4.4009 -3.8275
-3.4098 -2.9799 -2.5333 -2.2126 -1.4984 -0.6546
0.2946 1.6857 3.0749 4.4828 5.9560 7.2818
8.5312 9.4235 9.9121 10.4044 10.5480 10.2683
10.0118 9.5997 9.0487 8.3540 7.4590 6.6114
5.6175 4.6236 3.7816 2.7905 1.7565 0.7402
-0.2510 -1.1610 -2.0020 -2.6202 -2.8412 -2.8794
-2.5969 -1.7466 -0.6361 0.7793 2.5732 4.4426
6.3400 8.4929 10.5031 12.2886 14.0965 15.5902
16.9058 18.1542 19.1388 19.8148 20.2763 20.5551
20.7621 21.0017 21.0362 21.1453 21.3336 21.0725
20.6679 20.3294 19.6600 18.8068 17.8297 16.4833
15.0913 13.4391 11.5137 9.6676 7.4476 5.3264
3.5241 1.4812 -0.1952 -1.7262 -3.2954 -4.3033
-5.4511 -6.4003 -6.8627 -7.3606 -7.5779 -7.6012
-7.3541 -6.9364 -6.2129 -5.2236 -4.2307 -2.8890
-1.6974 -0.6848 0.3846 1.1194 1.5818 2.1226
2.6065 3.1221 4.0787 5.2349 6.7108 8.5215
10.2809 12.0012 13.5844 14.7200 15.4901 15.9806
16.0328 15.9330 15.6085 14.9410 14.1494 13.1442
12.2482 11.1955 10.0217 9.1359 7.7513 6.5345
5.6385 4.1728 2.8488 1.8903 0.9281 -0.0472
-0.7409 -1.2090 -1.5241 -1.5446 -1.2435 -0.5517
0.3779 1.6898 3.1807 4.7956 6.4766 7.9312
9.2971 10.2724 11.0332 11.5702 11.7996 12.2621
12.7301 13.2392 13.8378 14.4494 15.2140 15.8312
16.5780 17.2652 17.4992 17.6046 17.2810 16.3431
14.9333 13.0984 10.9865 8.8159 6.5782 4.2118
2.1046 0.2398 -1.4907 -2.7653 -3.4953 -4.0511
-4.4921 -4.5434 -4.6329 -5.0842 -5.6716 -6.4893
-7.5093 -8.7037 -10.0874 -11.2305 -12.3810 -13.6006
-14.3129 -14.6812 -14.9684 -14.9516 -14.5367 -13.8906
-13.1876 -12.3000 -11.2920 -10.5536 -9.7042 -9.0142
-8.7830 -8.2683 -8.0101 -8.0203 -7.6847 -7.6987
-8.0949 -8.4567 -9.0320 -10.0520 -11.3723 -12.8604
-14.5191 -16.4119 -18.4445 -20.2850 -22.1171 -23.8187
-25.1539 -26.3036 -27.1408 -27.4662 -27.3730 -27.0560
-26.2411 -25.0533 -23.8440 -22.3326 -20.7233 -19.2641
-17.4282 -15.2912 -13.2409 -10.9221 -8.5426 -6.3608
-4.3916 -2.8952 -1.6392 -0.9614 -0.7954 -0.8700
-1.4929 -2.3591 -3.3371 -4.3404 -5.3679 -6.4196
-7.1572 -7.7651 -8.4756 -8.7954 -8.9054 -9.2308
-9.1515 -8.8560 -8.9623 -9.1600 -9.1096 -9.1217
-9.3595 -9.4276 -9.4136 -9.5497 -9.5320 -9.5087
-9.7474 -10.0066 -10.2071 -10.2239 -10.2117 -10.1055
-9.6216 -9.2206 -8.7591 -8.0141 -7.4995 -7.0351
-6.3983 -5.7419 -5.1396 -4.4879 -3.5191 -2.6940
-2.1495 -1.7113 -1.7196 -1.9425 -2.1756 -2.5467
-2.8851 -3.2618 -3.7187 -4.2791 -5.4073 -6.8758
-8.4935 -10.6631 -12.8906 -14.9745 -17.1553 -19.0266
-20.6919 -22.2350 -23.4313 -24.3748 -25.0247 -25.4228
-25.3352 -24.7842 -24.1184 -23.0975 -21.9535 -21.0136
-19.9237 -18.6183 -17.3568 -16.0543 -14.6566 -13.4408
-12.3415 -11.2842 -10.3462 -9.4558 -8.6857 -8.0321
-7.3719 -6.8190 -6.4041 -5.8382 -5.2666 -4.7268
-3.9967 -3.1958 -2.2979 -1.3739 -0.4518 0.5449
1.6628 2.9169 4.1998 5.6217 7.1546 8.7527
10.5205 12.3106 13.9917 15.5441 16.7926 17.7576
18.5781 18.9548 19.0061 19.0219 18.8485 18.7683
18.7646 18.6247 18.6163 18.5986 18.3384 17.9962
17.5384 16.9585 16.3823 15.6513 15.0788 14.6331
13.9413 13.2466 12.2788 11.2541 10.4047 9.3185
8.6155 8.1521 7.5302 7.1115 6.6108 6.0038
5.4173 5.0015 4.8980 4.9856 5.3036 5.8761
6.5502 7.1637 7.7688 8.2462 8.6368 9.0210
9.4023 9.8760 10.2256 10.6377 11.1169 11.2829
11.2484 11.0824 10.4447 9.3818 8.2377 6.8652
5.2970 3.6821 2.0690 0.4113 -1.2820 -2.8428
-4.5733 -6.2963 -7.8814 -9.6371 -11.1681 -12.6823
-14.1209 -15.1037 -15.9680 -16.3717 -16.3969 -16.2832
-15.8580 -15.3228 -14.8911 -14.4781 -14.1033 -14.0641
-14.2637 -14.5881 -15.0711 -15.7462 -16.1872 -16.3615
-16.5965 -16.2264 -15.4450 -14.6366 -13.3779 -12.0372
-10.8018 -9.4927 -8.2909 -7.2438 -6.1893 -5.1655
-4.3683 -3.6998 -2.9987 -2.4570 -2.1474 -1.7269
-1.5479 -1.5516 -1.2859 -1.2048 -1.0500 -0.7806
-0.5521 -0.0710 0.3047 0.4632 0.5593 0.4725
0.0455 -0.4067 -0.8412 -1.4109 -1.6151 -1.6011
-1.4025 -0.8403 -0.1914 0.4650 1.0963 1.7489
2.1704 2.5713 3.0309 3.3153 3.7908 4.1507
4.6412 5.2453 5.6090 6.3856 7.1493 7.8560
9.0345 10.1580 11.3683 12.8731 14.1887 15.7122
17.1947 18.3080 19.6264 20.5849 21.3485 22.0403
22.1289 22.0375 21.5909 20.6865 19.7998 18.7807
17.5676 16.5858 15.4586 14.2884 13.3989 12.3463
11.5519 10.7985 10.0060 9.4102 8.5244 7.6517
6.6288 5.5249 4.3827 2.9217 1.8252 0.8741
-0.1869 -0.8154 -1.1603 -1.5715 -1.4820 -1.0578
-0.8732 -0.4508 -0.0005 0.3436 0.8004 1.3505
1.9612 2.4899 3.2386 4.1244 4.6978 5.1668
5.8455 6.2418 6.4833 6.8945 6.9178 6.8059
6.6110 6.0861 5.4502 4.6520 3.5975 2.4479
1.1360 -0.4770 -2.0388 -3.6117 -5.0896 -6.2877
-7.2574 -7.8131 -7.9837 -7.9828 -7.8681 -7.4634
-7.0728 -6.7138 -6.2252 -5.9577 -5.9092 -6.1283
-6.7922 -7.6378 -8.6299 -9.8411 -10.6746 -11.1604
-11.6350 -11.4522 -10.8854 -10.1395 -8.8099 -7.6239
-6.3773 -4.8864 -3.7993 -2.6729 -1.5793 -0.8091
0.0021 0.5615 0.7853 0.8766 0.7694 0.4757
0.0804 -0.4884 -1.1644 -1.8189 -2.6394 -3.4040
-4.1863 -5.0385 -5.7937 -6.5294 -7.2016 -7.7294
-7.8869 -7.9569 -7.6576 -6.8436 -6.1108 -5.0133
-3.6772 -2.4996 -1.0461 0.5297 1.9273 3.3194
4.4942 5.1366 5.6988 5.9198 5.6298 5.2932
4.5948 3.8704 3.1496 2.0494 1.0601 0.2984
-0.5846 -1.2802 -1.6345 -2.0112 -1.9291 -1.6578
-1.3165 -0.6807 -0.2322 0.4736 1.2475 1.8051
2.4503 2.9444 3.1160 3.3416 3.7127 3.9971
4.5397 5.2511 6.0642 6.9434 7.7695 8.6058
9.1830 9.6706 9.9438 9.8990 9.7303 9.2063
8.6039 7.8757 7.0170 6.2506 5.3499 4.5322
3.7536 3.1951 2.8203 2.5480 2.5387 2.3858
2.4818 2.6077 2.6058 2.9648 3.3816 3.8739
4.5890 5.4487 6.3036 7.3955 8.7083 9.9017
11.3693 12.8508 14.1935 15.6508 16.8153 17.6712
18.2279 18.4703 18.2764 17.7001 16.9626 16.0144
15.1202 14.1860 13.2517 12.4144 11.5445 10.5739
9.4606 8.1963 6.6784 5.1045 3.4896 1.7395
-0.0208 -1.5378 -3.0483 -4.4627 -5.3205 -6.0142
-6.4394 -6.2278 -5.5900 -4.9178 -3.8763 -2.5654
-1.4829 -0.2139 1.0271 1.9501 2.7128 3.4196
3.7207 3.8298 4.0583 3.9398 3.8951 3.7720
3.3403 2.9739 2.4312 1.7552 1.0317 0.1897
-0.7109 -1.7962 -2.9878 -4.3240 -5.9761 -7.4502
-9.0717 -11.0008 -12.3938 -13.8371 -15.3271 -16.1298
-17.0538 -17.7513 -17.7569 -17.7615 -17.4455 -16.7984
-16.1168 -15.2870 -14.3882 -13.5957 -12.7565 -11.8223
-10.8862 -9.6787 -8.3408 -6.7967 -5.0513 -3.0942
-0.9666 0.8898 2.8310 4.5811 5.9592 7.2655
8.2873 8.9876 9.3381 9.4528 9.1964 8.5782
7.8071 6.8626 5.7922 4.6641 3.5405 2.2632
1.0576 -0.0212 -1.3070 -2.5601 -3.7769 -4.9675
-5.9997 -6.6924 -6.9255 -7.1297 -6.9824 -6.4193
-5.7181 -4.7997 -3.7433 -2.7233 -1.8944 -0.7886
0.1839 1.0379 2.1773 3.0677 3.8705 4.5120
4.7824 4.8448 4.8066 4.6220 4.2593 3.8910
3.3856 2.5856 1.6924 0.7143 -0.5006 -1.6912
-2.7924 -4.0110 -5.0945 -6.0977 -7.1877 -8.1257
-9.1616 -10.2273 -11.2109 -12.1946 -13.1186 -14.0864
-14.8594 -15.4860 -16.0165 -16.2431 -16.1051 -15.7899
-15.2333 -14.2366 -13.1718 -11.9765 -10.5779 -9.0404
-7.2717 -5.4498 -3.5011 -1.4275 0.7487 2.9146
5.0656 7.3276 9.3518 11.2827 13.1456 14.7493
16.2123 17.1577 17.7833 18.1992 17.9595 17.6453
17.3628 16.6402 15.8570 15.1353 14.1367 13.2146
12.4817 11.5363 10.8183 10.2887 9.5643 9.0412
8.8221 8.4864 8.3111 8.7121 9.1130 9.8440
11.0402 12.3017 14.0453 15.9688 17.9445 20.1496
22.3295 24.4619 26.6548 28.7592 30.6352 32.4207
33.9349 35.1591 36.0700 36.5455 36.7758 36.6425
36.1325 35.3642 34.3106 32.9381 31.3726 29.6701
27.7484 25.8436 23.8688 21.7467 19.7998 17.9248
15.9985 14.2950 12.8703 11.4475 10.1645 9.1380
8.0667 7.1194 6.1823 5.1278 4.3194 3.5567
2.8388 2.5068 2.4089 2.3502 2.6056 3.1557
3.6061 4.1385 4.7594 5.0839 5.4522 5.7972
5.8568 6.0927 6.1459 5.9967 5.8205 5.3673
4.8722 4.0648 3.0820 2.0704 0.7277 -0.4937
-1.7496 -3.0652 -4.0284 -5.3039 -6.3827 -7.1192
-8.4479 -9.4316 -10.1383 -11.0866 -11.5248 -11.7542
-12.0656 -12.1290 -12.1532 -12.2940 -12.3798 -12.5570
-12.7379 -12.8497 -13.0651 -13.3663 -13.7654 -14.0814
-14.8106 -15.6786 -16.3695 -17.7383 -18.9914 -20.1149
-21.8436 -23.2711 -24.3163 -25.5265 -26.1615 -26.1895
-26.2463 -25.5881 -24.4767 -23.4091 -22.0105 -20.4590
-18.7994 -17.1053 -15.2377 -13.4018 -11.7590 -9.9623
-8.4089 -7.0253 -5.8533 -5.0337 -4.2132 -3.7647
-3.4990 -3.3713 -3.6072 -3.8524 -4.2645 -4.8044
-5.1895 -5.6491 -6.2570 -6.5629 -6.8538 -7.2575
-7.4197 -7.6920 -7.9801 -8.1069 -8.1498 -8.1759
-8.0090 -7.5876 -7.3806 -7.0282 -6.5862 -6.5480
-6.5639 -6.6049 -6.8977 -7.2305 -7.3312 -7.4636
-7.4180 -7.0124 -6.7047 -6.0408 -5.1178 -4.2134
-2.8903 -1.6120 -0.4950 0.6154 1.5254 2.3926
3.1963 3.7464 4.1855 4.3972 4.1473 3.7669
3.1692 2.3468 1.6289 1.0033 0.4503 0.0625
-0.1445 -0.4065 -0.6359 -0.8112 -1.0807 -1.2858
-1.3147 -1.3427 -1.3399 -1.1049 -0.8289 -0.4112
0.3123 1.2148 2.3067 3.6092 5.0376 6.4735
7.8469 9.0086 9.9233 10.5694 10.8501 10.8790
10.6487 10.1759 9.7097 9.1400 8.5648 8.1480
7.7144 7.4375 7.3303 7.3116 7.4216 7.6286
7.8962 8.2197 8.5498 8.8099 9.1297 9.3237
9.4896 9.6593 9.6341 9.6034 9.4449 9.2845
9.1157 8.8444 8.6449 8.2551 7.6407 6.9404
6.0453 4.9889 4.0193 3.1092 2.1806 1.4794
0.9647 0.4967 0.3037 0.3298 0.5424 1.0412
1.7041 2.5572 3.5083 4.5535 5.7879 7.0821
8.2942 9.3897 10.3566 11.1538 11.7981 12.1598
12.2838 12.2931 12.0377 11.6293 11.2787 10.8097
10.1356 9.4988 8.7939 7.9818 7.4270 6.9207
6.3286 5.8475 5.3543 4.7342 4.0508 3.3701
2.5422 1.7338 0.9748 0.2028 -0.4396 -1.0857
-1.5697 -2.1571 -2.9319 -3.6498 -4.5804 -5.6041
-6.6596 -7.8502 -9.2218 -10.6539 -12.1290 -13.5872
-14.6669 -15.6786 -16.4981 -16.8254 -16.9308 -16.6278
-15.9602 -15.2245 -14.2754 -13.0670 -11.9509 -10.7855
-9.5706 -8.6195 -7.6163 -6.6765 -5.8550 -5.0140
-4.1478 -3.3665 -2.8602 -2.3176 -2.0034 -1.9437
-1.9577 -2.2402 -2.7428 -3.4421 -4.1926 -5.1204
-6.0639 -6.9012 -7.6406 -8.1488 -8.4574 -8.2700
-7.7824 -6.9339 -5.5885 -4.1619 -2.6095 -1.0599
0.3900 1.7792 2.9941 3.9144 4.7246 5.4668
5.8062 6.1334 6.4094 6.4626 6.5194 6.3096
6.0141 5.7446 5.3260 4.9120 4.5390 4.0980
3.6411 3.3381 2.9530 2.3498 1.7913 1.1330
0.1997 -0.7682 -1.8283 -3.0889 -4.3448 -5.7033
-7.1597 -8.5088 -10.0175 -11.5661 -12.9834 -14.5050
-15.9325 -17.1894 -18.2635 -19.2173 -19.9567 -20.4033
-20.8816 -21.0868 -21.0672 -21.1073 -21.0439 -20.9432
-20.8276 -20.6290 -20.4062 -20.2169 -19.8579 -19.4533
-19.0188 -18.4034 -17.8039 -17.2286 -16.7932 -16.3662
-16.0109 -16.0119 -16.0231 -16.0930 -16.4781 -16.8389
-17.1513 -17.7144 -18.3047 -18.8165 -19.3592 -19.8767
-20.5144 -21.1298 -21.4683 -21.8785 -22.3074 -22.5983
-23.0878 -23.4878 -23.8048 -24.3326 -24.7960 -25.2174
-25.6230 -25.9232 -26.0612 -25.9419 -25.5270 -24.8538
-23.9084 -22.5555 -21.0711 -19.4730 -17.6875 -16.0139
-14.3477 -12.5529 -10.7422 -9.0760 -7.4779 -5.7838
-4.1465 -2.7209 -1.2860 0.2086 1.4804 2.6729
3.7722 4.6962 5.4887 6.0994 6.6626 6.8901
6.8957 6.6989 6.1013 5.3171 4.2094 3.0766
2.0276 1.0458 0.2496 -0.3667 -0.6297 -0.6856
-0.4441 0.0631 0.7670 1.7255 2.6849 3.7292
4.7847 5.7180 6.6960 7.6182 8.6186 9.6974
10.7864 12.0619 13.2274 14.2670 15.3038 16.0721
16.5317 16.8543 16.8385 16.5000 16.1047 15.4753
14.7742 14.0096 13.1080 12.1448 11.0409 9.8782
8.6353 7.4297 6.3006 5.3179 4.4078 3.5724
2.9477 2.2298 1.5669 0.9580 0.3464 -0.0201
-0.3408 -0.3856 -0.0779 0.3734 1.1211 1.9957
3.0605 4.2176 5.2814 6.2809 6.9625 7.3783
7.4968 7.3634 7.0138 6.4534 5.8287 5.0446
4.1485 3.1322 2.0954 0.9812 -0.2253 -1.3404
-2.4491 -3.5418 -4.6103 -5.4579 -6.2420 -6.9469
-7.1837 -7.2108 -6.9982 -6.4733 -5.7152 -4.7987
-3.7955 -2.7074 -1.7069 -0.6813 0.3574 1.3373
2.4030 3.5545 4.7181 5.8314 6.8150 7.6756
8.3413 8.8131 9.1450 9.1861 8.9642 8.6434
8.2415 7.6262 6.9604 6.2919 5.4929 4.6658
3.8071 2.9596 1.9759 0.9353 -0.0707 -1.1998
-2.2469 -3.2520 -4.2133 -5.0031 -5.6679 -6.1415
-6.3933 -6.4977 -6.4417 -6.1975 -5.8861 -5.4460
-4.8576 -4.0577 -3.0693 -2.0446 -0.8447 0.3963
1.5366 2.6051 3.5627 4.4121 5.0554 5.5356
5.9794 6.2740 6.3831 6.4120 6.1696 5.8116
5.4200 4.8475 4.3710 3.8312 3.3267 2.9165
2.3664 1.8955 1.4321 0.9258 0.4596 0.0736
-0.2658 -0.5940 -0.8560 -1.0630 -1.1655 -1.1814
-1.1012 -0.8551 -0.4728 -0.0066 0.5463 1.2362
1.9532 2.6628 3.4870 4.3355 5.1690 5.9709
6.7522 7.5559 8.2953 8.9890 9.6500 10.2244
10.6934 11.1092 11.4663 11.6864 11.7693 11.6873
11.3572 10.8257 10.1432 9.3414 8.4770 7.6062
6.7195 5.7713 4.9209 4.0939 3.2426 2.5265
1.8207 1.1848 0.7224 0.3438 0.0212 -0.2072
-0.3275 -0.3676 -0.3014 -0.1886 -0.0702 0.0491
0.1358 0.2104 0.2832 0.4370 0.6897 1.0132
1.4635 1.9847 2.4780 2.9898 3.5026 4.0350
4.6364 5.1884 5.7553 6.3445 6.8620 7.3189
7.6536 7.8102 7.7916 7.5874 7.2219 6.8060
6.3837 5.9715 5.6443 5.3617 5.0811 4.8508
4.6447 4.4331 4.2018 3.9249 3.6368 3.2825
2.8396 2.3715 1.8335 1.2377 0.7641 0.4154
0.1151 -0.0173 0.0499 0.2541 0.5049 0.8181
1.2741 1.7216 2.1225 2.5691 2.9952 3.3896
3.6936 3.9108 4.1560 4.3546 4.5066 4.7136
4.9019 5.0054 5.1499 5.2283 5.1900 5.1947
5.1070 4.9075 4.5989 4.0935 3.4464 2.6716
1.7513 0.6362 -0.5461 -1.7777 -3.0290 -4.1758
-5.3190 -6.3558 -7.3087 -8.2401 -9.0504 -9.8010
-10.4760 -10.9935 -11.3646 -11.6079 -11.6602 -11.6014
-11.4448 -11.1660 -10.9264 -10.6690 -10.3865 -10.1740
-9.8905 -9.5819 -9.3264 -9.0299 -8.7885 -8.6300
-8.5647 -8.7157 -8.9992 -9.3712 -9.8626 -10.3297
-10.7027 -10.9554 -10.9563 -10.6495 -10.0705 -9.2594
-8.1834 -6.8921 -5.5298 -4.1984 -2.9117 -1.7229
-0.7961 -0.1230 0.2519 0.3311 0.1847 -0.1519
-0.5509 -1.0265 -1.4516 -1.8041 -2.2302 -2.5957
-2.9966 -3.6083 -4.2815 -5.1253 -6.1770 -7.0805
-7.9280 -8.7140 -9.2166 -9.6352 -9.8544 -9.7816
-9.6940 -9.4367 -9.0274 -8.7066 -8.3150 -7.9840
-7.9122 -7.8768 -7.9300 -8.1388 -8.3057 -8.4997
-8.6572 -8.6386 -8.5566 -8.3458 -8.0037 -7.7566
-7.5981 -7.4163 -7.3631 -7.3799 -7.4023 -7.5673
-7.8209 -8.1883 -8.7104 -9.3566 -10.0913 -10.7999
-11.5225 -12.3011 -12.6964 -12.9463 -13.4349 -13.4647
-13.2624 -13.2419 -12.8391 -12.1855 -11.4844 -10.3748
-9.0163 -7.6234 -5.9647 -4.0551 -2.0524 0.0763
2.2301 4.3289 6.3773 8.2421 9.8924 11.2760
12.3557 13.2657 14.0732 14.7081 15.1706 15.4848
15.5603 15.4205 15.0391 14.3780 13.6247 12.8098
11.8998 11.0252 10.2587 9.6676 9.1912 8.7986
8.5898 8.3930 8.2140 8.1860 8.1068 7.9911
7.9231 7.9604 8.1263 8.1515 8.2466 8.5589
8.7799 8.9794 9.2163 9.4699 9.7095 9.8111
9.8363 9.8866 9.8931 9.7039 9.4353 9.1603
8.7724 8.4591 8.3687 8.4311 8.6185 9.0101
9.5686 10.0488 10.4087 10.5672 10.3817 9.9919
9.3635 8.5047 7.5668 6.5542 5.5677 4.6279
3.6302 2.6773 1.8997 1.2088 0.6372 0.1449
-0.3175 -0.5049 -0.5311 -0.5311 -0.3213 -0.0723
0.2176 0.6726 1.0381 1.4008 1.8241 2.2474
2.6763 2.8917 3.0026 2.9513 2.6586 2.3173
1.7886 1.1873 0.6744 0.2446 -0.0631 -0.3204
-0.3941 -0.2897 -0.0743 0.3360 0.7956 1.2031
1.6646 2.1485 2.4823 2.7107 2.8189 2.8114
2.8123 2.6892 2.5596 2.5867 2.6808 2.8916
3.0799 3.1927 3.3102 3.3186 3.2141 2.9978
2.6883 2.2650 1.7204 1.2617 0.9382 0.6836
0.5913 0.4981 0.3768 0.4384 0.4374 0.3479
0.2043 -0.0987 -0.4129 -0.8129 -1.3602 -1.9635
-2.5956 -3.2959 -3.9383 -4.4604 -5.0432 -5.4767
-5.6716 -5.8264 -5.8749 -5.8525 -5.8264 -5.6679
-5.4479 -5.2409 -4.9071 -4.4428 -3.9542 -3.5486
-3.2167 -2.9286 -2.6293 -2.2535 -2.0326 -1.8955
-1.2643 -0.4317 -0.2210 -0.1203 0.3096 0.3832
0.1902 -0.0317 -0.5436 -0.9324 -1.2457 -1.8443
-2.3664 -2.7189 -3.0648 -3.3464 -3.4639 -3.4145
-3.2373 -2.9473 -2.5110 -1.9982 -1.5618 -1.0472
-0.5176 -0.0980 0.4773 1.0721 1.5635 2.1584
2.8297 3.5401 4.3243 5.1522 6.0324 6.9210
7.8543 8.8100 9.3228 9.6426 10.3624 11.1111
11.4281 11.3861 11.4132 11.4206 11.2668 11.1390
10.8770 10.5348 10.1712 9.7917 9.3516 8.7530
8.3064 7.8178 7.2080 6.8780 6.6300 6.4500
6.4575 6.5041 6.6682 6.9059 7.1371 7.4150
7.6406 7.8401 8.0704 8.2830 8.4937 8.7091
8.9497 9.2368 9.7040 10.2662 10.8331 11.5594
12.2270 12.7528 13.2358 13.4950 13.4866 13.2871
12.9095 12.3258 11.5519 10.6587 9.5016 8.1850
7.1846 6.2578 4.9571 3.7627 2.7856 1.6033
0.4061 -0.6689 -1.7822 -2.8572 -3.7635 -4.5756
-5.2050 -5.6106 -5.7831 -5.6973 -5.4353 -4.8927
-4.1570 -3.3701 -2.5533 -1.7067 -0.9189 -0.2541
0.4032 0.9580 1.4568 1.9715 2.4386 2.9934
3.6041 4.2875 5.0772 5.8222 6.5933 7.3774
8.0478 8.6371 9.1163 9.4147 9.5983 9.5946
9.3485 8.9438 8.2809 7.4110 6.3993 5.2152
3.9061 2.5840 1.3047 0.0367 -1.1325 -2.1610
-3.0215 -3.6845 -4.3847 -5.0169 -5.1409 -5.2043
-5.6826 -6.0201 -5.9549 -5.8961 -5.9232 -5.6285
-5.0579 -4.4994 -3.7834 -2.9340 -2.0529 -1.1960
-0.4212 0.3238 0.9168 1.3960 1.7792 2.0328
2.2267 2.3340 2.3731 2.2929 2.0636 1.6962
1.2002 0.5950 -0.0483 -0.6842 -1.3891 -2.0035
-2.5350 -3.0366 -3.3676 -3.5765 -3.7369 -3.8805
-3.9802 -4.0809 -4.1947 -4.2889 -4.3607 -4.3709
-4.2693 -4.0120 -3.6623 -3.1784 -2.5649 -1.8945
-1.0722 -0.2097 0.6639 1.6364 2.5529 3.5711
4.5370 5.0685 5.7538 6.7253 7.2074 7.2922
7.5430 7.7742 7.7174 7.5906 7.5244 7.4917
7.4591 7.3565 7.2213 6.9602 6.4670 5.8470
5.1001 4.2750 3.3929 2.4577 1.5552 0.6330
-0.2229 -0.9614 -1.6047 -2.0588 -2.3254 -2.4616
-2.4998 -2.4607 -2.4355 -2.4485 -2.4532 -2.4933
-2.5008 -2.4495 -2.4113 -2.3413 -2.1772 -1.9581
-1.7101 -1.3847 -1.0295 -0.6286 -0.1904 0.1425
0.4138 0.5798 0.6049 0.4893 0.1574 -0.2547
-0.8039 -1.5153 -2.1913 -2.7740 -3.2934 -3.7055
-3.9750 -4.1409 -4.2193 -4.2155 -4.1521 -4.2967
-4.3181 -4.0692 -4.1680 -4.3620 -4.5083 -4.7629
-4.9941 -5.1918 -5.4146 -5.7634 -6.0710 -6.4365
-7.0193 -7.6076 -8.2202 -8.9065 -9.6738 -10.5214
-11.4025 -12.4122 -13.4565 -14.4812 -15.5786 -16.5940
-17.4602 -18.2611 -18.9185 -19.3819 -19.6495 -19.6476
-19.4248 -18.9250 -18.1101 -17.1777 -16.0533 -14.6566
-13.1927 -11.7186 -10.1112 -8.4944 -6.9942 -5.4810
-3.9873 -2.6055 -1.2965 -0.1217 0.9338 1.8522
2.4237 2.8004 2.9962 2.8694 2.6410 2.2522
1.7990 1.3953 0.7697 0.1030 -0.5142 -1.1604
-1.8802 -2.6988 -3.0988 -3.2200 -3.5688 -3.6779
-3.3375 -2.9870 -2.4881 -1.6434 -0.7894 0.0890
0.9896 1.7411 2.4730 3.0371 3.3709 3.6450
3.7495 3.7355 3.7196 3.6133 3.4595 3.3550
3.1807 2.9457 2.7322 2.3555 1.8958 1.3504
0.5737 -0.2626 -1.1093 -1.9997 -2.8370 -3.5381
-4.1339 -4.5861 -4.8612 -5.0123 -5.0020 -4.8295
-4.5060 -4.0948 -3.6398 -3.2212 -2.8575 -2.6058
-2.4063 -2.0827 -1.9923 -1.8897 -1.4898 -1.1765
-0.7653 -0.2012 0.3265 0.8216 1.2934 1.6999
1.9694 2.1502 2.1931 2.1577 2.1101 1.8752
1.5647 1.4621 1.2542 0.8747 0.7591 0.6071
0.4113 0.3097 0.0206 -0.2227 -0.4363 -0.8279
-1.2409 -1.5402 -1.7994 -1.9719 -1.9980 -1.9477
-1.7500 -1.4405 -0.9929 -0.4988 0.1352 0.9417
1.7231 2.6657 3.5916 4.4428 5.2969 5.9785
6.4763 6.7421 6.8493 6.6861 6.2740 5.8432
5.1598 4.2955 3.5076 2.4652 1.3594 0.3412
-0.9679 -2.2163 -3.4033 -4.6993 -5.8368 -6.9081
-7.8293 -8.4895 -9.0825 -9.4535 -9.6372 -9.7118
-9.5151 -9.3240 -8.9268 -8.3720 -7.8042 -6.9753
-6.1623 -5.2327 -4.0747 -2.8672 -1.7251 -0.5484
0.6283 1.6194 2.5490 3.2846 3.8524 4.2720
4.3764 4.3084 4.1554 3.8515 3.3946 2.9266
2.4119 1.6995 0.9126 0.0268 -1.0650 -2.1662
-3.2403 -4.3573 -5.3549 -6.1428 -6.8682 -7.4491
-7.8165 -8.1130 -8.2286 -8.2910 -8.2547 -8.0160
-7.8183 -7.4929 -7.0958 -6.7601 -6.4366 -6.2165
-6.0468 -5.9928 -5.9946 -6.0543 -6.1709 -6.2828
-6.4562 -6.5979 -6.7713 -6.9019 -7.0837 -7.2860
-7.3877 -7.5527 -7.6422 -7.6049 -7.3877 -7.0390
-6.5896 -6.0339 -5.4660 -4.9383 -4.4777 -3.9640
-3.5537 -3.0773 -2.4983 -2.0769 -1.5435 -1.0755
-0.6522 -0.2074 0.0070 0.2289 0.3240 0.2559
0.0816 -0.2718 -0.7100 -1.2807 -1.8448 -2.3613
-2.9086 -3.3384 -3.5352 -3.7403 -3.8242 -3.5865
-3.3636 -3.0317 -2.5814 -2.1422 -1.6164 -1.1530
-0.6812 -0.1852 0.2614 0.7845 1.3327 1.7001
1.9817 2.2642 2.3071 2.2949 2.2203 1.9257
1.7159 1.4856 1.1005 0.7210 0.4124 0.0693
-0.3055 -0.6887 -1.1885 -1.6678 -2.1815 -2.8304
-3.4729 -4.1488 -4.8286 -5.4934 -6.1516 -6.7092
-7.2099 -7.6006 -7.8831 -8.1227 -8.1665 -8.2281
-8.3474 -8.2672 -8.2943 -8.3083 -8.1451 -8.1442
-8.1255 -7.9391 -7.7274 -7.5465 -7.1633 -6.6813
-6.4184 -5.9363 -5.4282 -5.0981 -4.6217 -4.2170
-3.8376 -3.4823 -3.2819 -3.0945 -2.9332 -2.9583
-2.9481 -2.7877 -2.7989 -2.6973 -2.4446 -2.2395
-1.8852 -1.5439 -1.1878 -0.8307 -0.5491 -0.1631
0.1446 0.4560 0.9371 1.3315 1.7967 2.3981
2.9296 3.5394 4.1594 4.6862 5.2260 5.7323
6.1370 6.4596 6.6796 6.7495 6.7076 6.4885
6.1649 5.7164 5.1178 4.4838 3.7649 3.0600
2.2899 1.5384 0.8838 0.2349 -0.2966 -0.7767
-1.1031 -1.3185 -1.4443 -1.3437 -1.1329 -0.8085
-0.3432 0.2050 0.7411 1.2866 1.7947 2.1639
2.5024 2.7681 2.8865 2.9732 3.0208 2.9732
2.9956 2.9993 2.9462 3.0459 3.0674 3.0068
2.9937 2.8781 2.7522 2.5508 2.3457 2.1312
1.8478 1.6697 1.4403 1.2445 1.0608 0.8426
0.7056 0.5070 0.3177 0.2506 0.1210 -0.0469
-0.0506 -0.0562 0.0706 0.4035 0.7615 1.3088
1.9838 2.7260 3.6276 4.5861 5.5390 6.5628
7.5930 8.5198 9.4998 10.3883 11.1286 11.9016
12.4806 12.9869 13.4624 13.7486 14.0059 14.1355
14.1896 14.1439 13.9640 13.7868 13.5173 13.1966
12.9141 12.6623 12.3192 12.0656 11.8297 11.4679
11.1407 10.8162 10.5020 10.0852 9.7178 9.3197
8.8637 8.4861 8.0153 7.6404 7.3272 7.0596
6.8936 6.8451 6.9616 7.0875 7.3747 7.7653
8.1448 8.6175 9.0623 9.4399 9.7271 9.9471
10.0310 9.9396 9.7559 9.4212 8.9597 8.3891
7.7774 7.0259 6.1756 5.4147 4.5579 3.7141
2.9719 2.2642 1.6404 1.0549 0.6064 0.2232
-0.0910 -0.1955 -0.2682 -0.3614 -0.3111 -0.1442
-0.0417 0.0684 0.1728 0.2101 0.2418 0.2063
0.2147 0.2464 0.2763 0.4338 0.6306 0.8403
1.0445 1.3037 1.5666 1.7680 2.0142 2.2463
2.4673 2.6342 2.7610 2.9027 2.9512 2.9055
2.9102 2.8421 2.6799 2.6006 2.4747 2.3610
2.3750 2.4421 2.5362 2.6677 2.8672 3.0882
3.2476 3.3306 3.3866 3.3828 3.3726 3.4043
3.3987 3.4658 3.5040 3.4201 3.3324 3.1049
2.7385 2.2387 1.5478 0.8001 -0.0727 -0.9892
-1.8162 -2.6936 -3.4983 -4.1565 -4.7961 -5.3947
-5.8814 -6.2712 -6.6348 -6.9602 -7.1980 -7.3845
-7.5989 -7.7630 -7.8740 -7.9896 -8.0325 -8.0735
-8.0484 -7.9122 -7.7481 -7.5206 -7.2559 -7.0302
-6.9062 -6.8158 -6.7580 -6.9072 -7.1673 -7.3398
-7.6643 -8.1603 -8.5510 -8.9668 -9.4228 -9.8442
-10.1948 -10.4419 -10.7915 -11.1169 -11.4190 -11.8377
-12.2591 -12.6927 -13.1635 -13.6176 -14.0055 -14.3775
-14.5910 -14.6862 -14.7318 -14.6442 -14.5398 -14.3757
-14.1715 -13.9132 -13.6540 -13.4321 -13.1934 -13.0368
-12.8522 -12.7207 -12.7030 -12.6098 -12.5324 -12.4084
-12.1473 -11.8546 -11.4835 -11.0630 -10.6481 -10.2490
-9.9003 -9.5712 -9.2244 -8.8598 -8.5223 -8.1465
-7.7064 -7.2617 -6.8048 -6.3163 -5.7746 -5.2235
-4.6268 -4.0264 -3.4828 -2.9970 -2.6567 -2.3994
-2.2912 -2.2782 -2.4609 -2.9588 -3.1201 -3.0949
-3.4903 -3.8446 -3.9714 -4.2353 -4.2549 -3.9192
-3.6917 -3.3794 -3.0139 -2.7649 -2.4684 -2.1896
-1.9584 -1.7449 -1.5929 -1.4307 -1.2489 -1.1100
-0.8853 -0.6596 -0.4676 -0.1823 0.0238 0.1786
0.3576 0.4667 0.6037 0.7902 0.9925 1.2732
1.5594 1.8568 2.1999 2.4787 2.7286 2.9785
3.1276 3.2358 3.3141 3.3048 3.3057 3.2479
3.0866 3.0148 2.8339 2.3481 2.0731 2.1178
1.8213 1.3001 0.9215 0.4199 0.0721 -0.0677
-0.3241 -0.4267 -0.4472 -0.4006 -0.1750 -0.0071
0.2325 0.5551 0.8012 1.0856 1.4660 1.8800
2.3546 2.9373 3.5694 4.3014 5.0734 5.8286
6.6193 7.3325 7.9805 8.5987 9.1302 9.5609
9.9199 10.2108 10.4327 10.5408 10.5632 10.5893
10.4942 10.3077 10.1343 9.9198 9.6755 9.4303
9.2000 8.9734 8.7832 8.6173 8.3702 8.1865
7.9198 7.7958 7.7744 6.7860 6.1949 6.9072
6.6266 5.2140 4.9259 5.3567 4.4383 3.3343
3.2150 2.5688 1.4416 0.7730 0.1437 -0.6722
-1.2307 -1.6521 -2.2134 -2.5509 -2.7542 -2.9500
-2.9920 -3.0144 -2.9025 -2.7216 -2.5016 -2.1818
-1.8909 -1.5282 -1.1412 -0.8084 -0.4587 -0.1501
0.1156 0.3282 0.4242 0.5175 0.5669 0.5025
0.4773 0.4643 0.4447 0.4354 0.4363 0.5417
0.6843 0.8307 1.1272 1.4973 1.9318 2.4540
2.6824 2.9593 3.7220 4.3504 4.2618 4.1378
4.7401 4.8101 4.1937 4.0688 3.8749 3.4087
3.0478 2.6516 2.2693 1.9560 1.6641 1.3220
0.8604 0.3998 -0.0337 -0.6417 -1.3139 -1.8929
-2.4197 -2.8253 -3.0967 -3.1974 -3.1386 -2.9344
-2.5037 -1.9955 -1.4492 -0.8235 -0.1932 0.3970
0.9237 1.3899 1.7741 2.0678 2.3195 2.5321
2.7242 2.9302 3.1176 3.2649 3.3395 3.3600
3.3348 3.2332 3.0337 2.9376 2.8686 2.3120
1.7451 1.8104 1.8794 1.0878 0.2878 0.5656
0.4891 -0.3705 -0.6148 -0.5449 -0.8283 -1.2572
-1.5146 -1.6871 -2.0395 -2.2670 -2.4199 -2.6540
-2.6978 -2.6475 -2.5318 -2.2829 -1.9454 -1.4727
-0.8778 -0.2820 0.3306 0.9795 1.5594 2.0415
2.4014 2.7137 3.0121 3.2442 3.4466 3.7319
4.0218 4.2055 4.4116 4.6269 4.7770 4.8964
5.0372 5.1966 5.3234 5.3998 5.4623 5.4847
5.3942 5.1742 4.9029 4.8357 4.7705 4.3015
3.8716 3.9639 4.0227 3.7541 3.7709 3.9639
4.0161 4.1196 4.1224 4.1504 4.3658 4.2800
4.1345 4.2427 4.1009 3.9592 3.9368 3.6664
3.5163 3.4249 3.1545 2.9942 2.8254 2.5625
2.3797 2.1755 1.9191 1.7634 1.6030 1.3764
1.2133 1.1107 1.0725 1.0389 1.0053 1.0230
1.0463 1.0529 1.0808 1.1573 1.1517 1.0510
1.0146 0.9549 0.7284 0.6044 0.5018 0.0086
-0.4856 -0.6945 -0.8241 -1.0357 -1.6157 -2.1509
-1.8218 -1.7453 -2.4334 -2.1472 -1.7863 -2.1574
-1.7108 -1.2502 -1.3603 -0.8307 -0.1482 0.0784
0.5437 1.1031 1.4294 1.8145 2.1278 2.2406
2.3236 2.3655 2.2527 2.0970 1.8928 1.6084
1.4042 1.1086 0.7394 0.4103 -0.0214 -0.3981
-0.7413 -1.1496 -1.4256 -1.6839 -2.0513 -2.3459
-2.7021 -3.1655 -3.3464 -3.5189 -4.2312 -4.8960
-5.1030 -5.7091 -6.4401 -6.4876 -6.6070 -6.8941
-6.6927 -6.4485 -6.3646 -5.9841 -5.6140 -5.3175
-4.8047 -4.3087 -3.6998 -2.9418 -2.2062 -1.3940
-0.4290 0.5099 1.2828 2.0502 2.6898 3.1355
3.4804 3.6865 3.7704 3.7741 3.6137 3.3219
3.0385 2.6040 2.1033 1.6352 1.1373 0.6198
0.0930 -0.3555 -0.8627 -1.3475 -1.6021 -1.9527
-2.4720 -2.5587 -2.5494 -2.8356 -2.7247 -2.5242
-2.2837 -1.6898 -1.3877 -1.0744 -0.4283 -0.0469
0.2067 0.5974 0.8491 1.0281 1.2482 1.3302
1.3293 1.3666 1.3554 1.2808 1.1773 1.0626
0.9777 0.9003 0.7558 0.5703 0.3344 0.0285
-0.2764 -0.6325 -1.0344 -1.4008 -1.7290 -1.9985
-2.1803 -2.2950 -2.3109 -2.1747 -1.9165 -1.5724
-1.1603 -0.7230 -0.2839 0.1637 0.6336 1.0802
1.4979 1.9958 2.4526 2.8983 3.4372 3.9510
4.5085 5.1118 5.7318 6.4134 7.1052 7.7178
8.2753 8.8553 9.3028 9.5275 9.6338 9.6683
9.6254 9.4967 9.2515 8.9932 8.7424 8.3527
7.8874 7.3289 6.6501 5.9098 5.0716 4.2110
3.3952 2.5728 1.8455 1.2441 0.6996 0.2782
-0.0566 -0.2813 -0.4659 -0.6374 -0.6981 -0.7988
-0.9218 -0.9526 -1.0393 -1.1801 -1.1969 -1.2361
-1.3582 -1.3657 -1.3284 -1.3144 -1.2249 -1.0161
-0.7186 -0.3792 0.0469 0.5205 0.9820 1.4184
1.7829 2.0776 2.2706 2.3927 2.4878 2.4981
2.4085 2.2733 2.0925 1.8342 1.4705 1.0099
0.4589 -0.2218 -0.9984 -1.8777 -2.8847 -3.9308
-4.9769 -5.9923 -6.9620 -7.8543 -8.5806 -9.1531
-9.6119 -9.9177 -10.0827 -10.1536 -10.0902 -9.9541
-9.8329 -9.6576 -9.4580 -9.3145 -9.1401 -8.8996
-8.6105 -8.2562 -7.8534 -7.4180 -7.0246 -6.6497
-6.3020 -6.0530 -5.8293 -5.6484 -5.5430 -5.5262
-5.6531 -5.8032 -6.0456 -6.4335 -6.8577 -7.3910
-7.9673 -8.5519 -9.0638 -9.4637 -9.7854 -9.9393
-9.9449 -9.8311 -9.5999 -9.2083 -8.7850 -8.3197
-7.7696 -7.2223 -6.5967 -5.9534 -5.2914 -4.6061
-3.9348 -3.2178 -2.5399 -1.9050 -1.3083 -0.8113
-0.3964 -0.0775 0.1323 0.2274 0.2395 0.1108
-0.1354 -0.4375 -0.8850 -1.4118 -1.9955 -2.6295
-3.2346 -3.8295 -4.3908 -4.9325 -5.4603 -5.9516
-6.4122 -6.8504 -7.2383 -7.5451 -7.7577 -7.8080
-7.7381 -7.4780 -7.0286 -6.4719 -5.7204 -4.9130
-4.0897 -3.1788 -2.2324 -1.3103 -0.3993 0.5032
1.2911 2.0500 2.7819 3.4094 4.0127 4.6047
5.1772 5.7338 6.2392 6.6597 7.0420 7.3310
7.4671 7.5287 7.4298 7.1464 6.8088 6.4284
5.9772 5.5585 5.1688 4.7697 4.4741 4.2410
4.0275 3.8541 3.7049 3.6070 3.5576 3.5240
3.6116 3.8718 4.2065 4.6699 5.2433 5.8661
6.5393 7.1938 7.7971 8.3108 8.6903 8.9374
9.0390 8.9812 8.7928 8.5029 8.1094 7.6553
7.1667 6.6605 6.2129 5.7971 5.4148 5.0996
4.7882 4.4992 4.2390 3.9761 3.7448 3.5108
3.2740 3.0707 2.8460 2.6661 2.5598 2.4460
2.3341 2.2138 2.1215 1.9882 1.7840 1.5350
1.1966 0.8609 0.4935 0.1308 -0.1983 -0.5256
-0.8062 -1.0692 -1.3489 -1.6687 -1.9997 -2.3428
-2.7344 -3.1680 -3.6118 -4.0659 -4.5293 -4.9554
-5.2491 -5.4272 -5.5139 -5.4225 -5.1876 -4.8389
-4.3783 -3.8487 -3.2948 -2.7531 -2.2776 -1.8814
-1.5923 -1.4208 -1.3443 -1.4059 -1.5961 -1.9187
-2.3289 -2.7923 -3.2874 -3.7900 -4.2758 -4.7131
-5.1830 -5.6240 -6.0548 -6.5713 -7.0832 -7.6193
-8.1974 -8.7559 -9.2706 -9.6799 -9.9923 -10.1582
-10.0902 -9.8282 -9.3713 -8.6823 -7.8096 -6.8539
-5.8134 -4.7132 -3.6624 -2.6703 -1.7379 -0.8550
-0.0046 0.7599 1.4723 2.2098 2.9426 3.6391
4.2974 4.9053 5.4190 5.8302 6.0437 6.0223
5.8395 5.4255 4.8484 4.1687 3.4050 2.6526
1.9030 1.2344 0.6563 0.1818 -0.1110 -0.2928
-0.3506 -0.2807 -0.1828 -0.0327 0.1239 0.2153
0.2945 0.3178 0.3048 0.3057 0.3094 0.3878
0.4894 0.6805 0.9929 1.3080 1.7061 2.1341
2.4940 2.8296 3.0702 3.1895 3.1802 3.0189
2.8147 2.5629 2.2562 2.0138 1.7844 1.5587
1.4124 1.2744 1.1242 1.0142 0.8678 0.7047
0.5536 0.3233 0.0874 -0.1718 -0.5261 -0.8590
-1.1527 -1.4995 -1.8082 -2.0478 -2.2231 -2.3033
-2.3051 -2.2063 -2.0394 -1.7718 -1.4091 -0.9616
-0.4311 0.1815 0.9125 1.7106 2.5870 3.5269
4.4863 5.4075 6.2765 7.1035 7.8261 8.4601
9.0149 9.4857 9.8242 10.0265 10.1729 10.1841
10.0675 9.8978 9.7048 9.4773 9.2265 9.0148
8.8591 8.6857 8.4936 8.3537 8.1561 7.9146
7.6610 7.3393 6.9766 6.5962 6.2316 5.8344
5.4223 5.0400 4.6736 4.3789 4.1337 3.9472
3.8754 3.8465 3.8474 3.9230 4.0181 4.1160
4.2679 4.4003 4.5197 4.6959 4.8628 5.0176
5.1583 5.2478 5.3327 5.3718 5.3672 5.4194
5.4324 5.4278 5.4231 5.3410 5.2152 5.0184
4.8198 4.5793 4.2884 4.0459 3.8119 3.5900
3.3457 3.0846 2.7937 2.4515 2.1121 1.7364
1.3252 0.8609 0.3555 -0.1461 -0.7158 -1.2808
-1.8403 -2.4678 -3.0720 -3.6146 -4.1256 -4.5685
-4.8883 -5.1410 -5.3181 -5.4132 -5.4570 -5.4403
-5.4002 -5.3153 -5.1941 -5.0384 -4.8417 -4.6487
-4.4231 -4.2096 -4.0203 -3.8124 -3.6641 -3.5541
-3.4115 -3.2595 -3.1206 -3.0376 -2.9593 -2.9043
-2.9639 -3.0805 -3.2707 -3.5234 -3.8646 -4.2740
-4.6516 -5.0889 -5.5616 -5.9896 -6.3793 -6.7709
-7.1942 -7.5429 -7.8730 -8.2329 -8.5648 -8.8772
-9.1457 -9.3956 -9.5896 -9.7005 -9.7164 -9.6847
-9.6138 -9.4861 -9.3416 -9.1355 -8.9248 -8.7365
-8.5621 -8.3906 -8.2526 -8.1882 -8.1472 -8.1537
-8.2190 -8.2973 -8.3785 -8.4754 -8.5603 -8.6377
-8.6740 -8.6424 -8.5892 -8.4727 -8.2871 -8.0857
-7.8508 -7.5450 -7.1944 -6.8531 -6.5333 -6.2368
-6.0093 -5.8266 -5.6877 -5.6327 -5.5944 -5.5311
-5.4583 -5.3698 -5.1898 -4.9092 -4.6006 -4.2127
-3.7679 -3.3027 -2.7843 -2.2594 -1.7549 -1.2729
-0.8188 -0.4021 -0.0403 0.2814 0.5835 0.8315
0.9984 1.1065 1.1615 1.1214 1.0105 0.8547
0.6114 0.2972 -0.0459 -0.4003 -0.7788 -1.1527
-1.4921 -1.8007 -2.0450 -2.3219 -2.6063 -2.8506
-3.1480 -3.4501 -3.7354 -4.0189 -4.2884 -4.5466
-4.7947 -4.9886 -5.1658 -5.3429 -5.4567 -5.5714
-5.6515 -5.6833 -5.7150 -5.6814 -5.6152 -5.5387
-5.4539 -5.3821 -5.2824 -5.1956 -5.0950 -4.9523
-4.8675 -4.8115 -4.8022 -4.8964 -5.0651 -5.3421
-5.6880 -6.0954 -6.5887 -7.1285 -7.7225 -8.3229
-8.8908 -9.4157 -9.8810 -10.2614 -10.6092 -10.9103
-11.1043 -11.2628 -11.3420 -11.3420 -11.2609 -11.0838
-10.8255 -10.4209 -9.9258 -9.3244 -8.6279 -7.8009
-6.8666 -5.8811 -4.7902 -3.7142 -2.6224 -1.5866
-0.6756 0.1579 0.8292 1.3616 1.8073 2.1504
2.3733 2.5299 2.6185 2.5700 2.4693 2.2362
1.8669 1.5481 1.0502 0.4422 -0.0547 -0.6552
-1.2603 -1.7992 -2.3214 -2.7754 -3.1885 -3.4747
-3.6883 -3.8244 -3.8580 -3.8281 -3.7312 -3.6128
-3.4496 -3.2920 -3.1186 -2.9293 -2.7382 -2.4967
-2.2096 -1.8245 -1.3863 -0.9052 -0.3364 0.2295
0.7750 1.3307 1.8342 2.2873 2.6892 3.0808
3.4593 3.7316 3.9563 4.1548 4.3106 4.4038
4.4056 4.3795 4.2947 4.0868 3.8024 3.4798
3.0919 2.6546 2.2042 1.7175 1.2308 0.7600
0.3283 0.0010 -0.2424 -0.3235 -0.2675 -0.1333
0.1194 0.4364 0.8056 1.1963 1.5702 1.9496
2.3095 2.6424 2.9911 3.2848 3.5132 3.7314
3.9169 4.0577 4.1705 4.2852 4.4064 4.4959
4.5649 4.6470 4.7570 4.9285 5.1197 5.3854
5.7313 6.0912 6.5341 7.0152 7.5103 8.0501
8.6021 9.1513 9.6771 10.1881 10.6636 11.0766
11.4300 11.7265 11.9568 12.1479 12.2747 12.3008
12.2645 12.1460 11.9372 11.6425 11.2864 10.8537
10.3558 9.8393 9.3088 8.8034 8.2887 7.8095
7.3768 6.9666 6.6505 6.3540 6.1144 5.9298
5.7629 5.6323 5.4887 5.3451 5.1642 4.9656
4.7484 4.5153 4.2701 4.0314 3.8244 3.6407
3.4999 3.3787 3.2789 3.2118 3.2136 3.2062
3.2416 3.2957 3.2994 3.3665 3.4159 3.4402
3.4644 3.5017 3.5045 3.4486 3.4113 3.3189
3.1875 3.0569 2.8714 2.6392 2.3856 2.0928
1.7171 1.2770 0.8266 0.3446 -0.1598 -0.6419
-1.1109 -1.5547 -1.9174 -2.1859 -2.3631 -2.4461
-2.4349 -2.3137 -2.1235 -1.9044 -1.6275 -1.3384
-1.1007 -0.8834 -0.6951 -0.5571 -0.4648 -0.3772
-0.2988 -0.2457 -0.1851 -0.1245 -0.0490 -0.0192
-0.0117 0.0265 0.0396 0.0619 0.0424 -0.0378
-0.1432 -0.3148 -0.5283 -0.7707 -1.0299 -1.2686
-1.4514 -1.5782 -1.6267 -1.6043 -1.5455 -1.4187
-1.2528 -1.0971 -0.9283 -0.7605 -0.6104 -0.4677
-0.3736 -0.2766 -0.1470 -0.0211 0.1215 0.2977
0.4851 0.6725 0.8711 1.0688 1.2627 1.4138
1.5639 1.7028 1.8044 1.8781 1.8818 1.8697
1.8361 1.8063 1.7979 1.8146 1.8585 1.9088
2.0030 2.1288 2.2678 2.4104 2.5624 2.6864
2.8197 2.9586 3.0565 3.1610 3.2467 3.3167
3.3577 3.3605 3.3940 3.4388 3.4695 3.5236
3.5814 3.6280 3.6728 3.7278 3.7986 3.8760
3.9627 4.0588 4.1893 4.3189 4.4410 4.5772
4.7198 4.8699 5.0294 5.2196 5.4237 5.6512
5.9095 6.1911 6.5128 6.8130 7.0750 7.3547
7.6213 7.8097 7.9495 8.0465 8.0521 7.9896
7.8535 7.6446 7.3658 7.0470 6.7234 6.3999
6.1267 5.8973 5.7108 5.5728 5.4656 5.3751
5.3043 5.2316 5.1225 5.0227 4.9108 4.7672
4.6143 4.4120 4.1854 3.9234 3.6558 3.4329
3.2437 3.1551 3.1327 3.1989 3.3490 3.5336
3.7947 4.0595 4.3494 4.6310 4.8660 5.0767
5.2109 5.3126 5.3666 5.3844 5.3704 5.2846
5.1718 4.9890 4.7139 4.3839 4.0118 3.5708
3.0832 2.5620 1.9895 1.4114 0.8128 0.1965
-0.3704 -0.8944 -1.3914 -1.8184 -2.1820 -2.4795
-2.6827 -2.8338 -2.9513 -3.0100 -3.0277 -3.0305
-3.0455 -3.1098 -3.1630 -3.2142 -3.2823 -3.3485
-3.4362 -3.5173 -3.6264 -3.7476 -3.8623 -3.9639
-4.0338 -4.0329 -3.9826 -3.9229 -3.8026 -3.6525
-3.4940 -3.3607 -3.2759 -3.2292 -3.2320 -3.3020
-3.4213 -3.5686 -3.7253 -3.8362 -3.8931 -3.9108
-3.8726 -3.7785 -3.6964 -3.6125 -3.5146 -3.4521
-3.3915 -3.3319 -3.3207 -3.3645 -3.4391 -3.5650
-3.7673 -4.0172 -4.2522 -4.4769 -4.6829 -4.8153
-4.9123 -4.9617 -4.9552 -4.9291 -4.8862 -4.8480
-4.8238 -4.8079 -4.8247 -4.8779 -4.9814 -5.1082
-5.2228 -5.3431 -5.3963 -5.3944 -5.3515 -5.2415
-5.0429 -4.7921 -4.5506 -4.2252 -3.8942 -3.6127
-3.3413 -3.1176 -2.9563 -2.8547 -2.7381 -2.6868
-2.6915 -2.6803 -2.7130 -2.7745 -2.8705 -2.9423
-2.9918 -3.0673 -3.1316 -3.2323 -3.4011 -3.5801
-3.7638 -3.9699 -4.1517 -4.3111 -4.4743 -4.5815
-4.5964 -4.5554 -4.4650 -4.2767 -4.0165 -3.7303
-3.4002 -3.1103 -2.8566 -2.6217 -2.4921 -2.4427
-2.4800 -2.5620 -2.6171 -2.7224 -2.8427 -2.9658
-3.0823 -3.1579 -3.2455 -3.3024 -3.3499 -3.3658
-3.3332 -3.2968 -3.2306 -3.1560 -3.0255 -2.8428
-2.6125 -2.3272 -2.0363 -1.7239 -1.3659 -1.0013
-0.6405 -0.2386 0.1287 0.4653 0.8019 1.1086
1.3744 1.5646 1.7622 1.9319 2.0699 2.2116
2.2862 2.3897 2.4811 2.5650 2.6946 2.8027
2.9305 3.0395 3.1374 3.1841 3.2046 3.1813
3.0787 2.9882 2.8474 2.6843 2.5276 2.3458
2.1789 2.0512 1.9309 1.8348 1.7798 1.7696
1.8050 1.8544 1.9691 2.1416 2.3103 2.4698
2.6516 2.8483 3.0348 3.2091 3.3611 3.5289
3.6772 3.7863 3.9056 3.9569 3.9065 3.7816
3.5736 3.2930 2.9284 2.5089 2.0781 1.6399
1.2194 0.8259 0.4650 0.1424 -0.1438 -0.3741
-0.5531 -0.6464 -0.6883 -0.6856 -0.6222 -0.5634
-0.4776 -0.3779 -0.2735 -0.1821 -0.1140 -0.0534
-0.0273 -0.0115 -0.0050 -0.0311 -0.1029 -0.1952
-0.3117 -0.4880 -0.6968 -0.9206 -1.1574 -1.3793
-1.5789 -1.7271 -1.8437 -1.9891 -2.1076 -2.2129
-2.3239 -2.3817 -2.4358 -2.4665 -2.4162 -2.3621
-2.2633 -2.0824 -1.8680 -1.5472 -1.1426 -0.7034
-0.2000 0.3427 0.8937 1.4084 1.8578 2.1972
2.4042 2.4760 2.3939 2.1869 1.8820 1.4951
1.0307 0.5151 -0.0238 -0.5963 -1.1725 -1.7497
-2.3557 -2.9702 -3.5613 -4.1515 -4.7464 -5.2834
-5.7934 -6.2736 -6.6979 -7.0662 -7.3543 -7.5948
-7.7561 -7.8205 -7.7841 -7.6480 -7.4289 -7.1268
-6.7660 -6.3483 -5.9231 -5.4737 -4.9907 -4.4938
-3.9521 -3.4271 -2.8873 -2.3465 -1.8197 -1.3302
-0.9237 -0.5190 -0.2365 -0.0967 0.0273 -0.0090
-0.1946 -0.4100 -0.7708 -1.2025 -1.6706 -2.2580
-2.8454 -3.3778 -3.9680 -4.5396 -5.0197 -5.5251
-5.9120 -6.2113 -6.4780 -6.6225 -6.7344 -6.7773
-6.7270 -6.6449 -6.5163 -6.3400 -6.1312 -5.8300
-5.4580 -5.0655 -4.6170 -4.1331 -3.6492 -3.1150
-2.5714 -2.0334 -1.4525 -0.9024 -0.3542 0.1437
0.5670 0.9428 1.2103 1.4201 1.5740 1.6364
1.6402 1.6187 1.5590 1.4947 1.4136 1.2896
1.1907 1.0602 0.8588 0.6714 0.5017 0.2919
0.1138 -0.0009 -0.0792 -0.1025 -0.0708 0.0578
0.2378 0.4112 0.6331 0.8569 1.0359 1.2317
1.4060 1.5086 1.6270 1.7295 1.7538 1.8144
1.9067 1.9822 2.0615 2.1370 2.2022 2.2181
2.2237 2.2162 2.1845 2.1752 2.1892 2.2404
2.3048 2.3933 2.5127 2.5929 2.6646 2.7131
2.6982 2.6637 2.5621 2.4241 2.3075 2.1770
2.0949 2.0772 2.0986 2.1742 2.2627 2.3793
2.5182 2.6329 2.7662 2.8921 2.9695 3.0207
3.0776 3.1186 3.1223 3.1540 3.2277 3.2920
3.3769 3.4971 3.5922 3.6957 3.8328 3.9680
4.0864 4.1899 4.2607 4.2384 4.1442 3.9913
3.7470 3.4663 3.1390 2.7493 2.3456 1.8906
1.3880 0.8864 0.4221 -0.0143 -0.4283 -0.7807
-1.0661 -1.3327 -1.5723 -1.7169 -1.8521 -1.9770
-2.0320 -2.0600 -2.0665 -2.0628 -2.0106 -1.9379
-1.9080 -1.8586 -1.8130 -1.8120 -1.8353 -1.9015
-1.9659 -2.0479 -2.1617 -2.2493 -2.3351 -2.4097
-2.4573 -2.5151 -2.5748 -2.6456 -2.7202 -2.7435
-2.7240 -2.6643 -2.5459 -2.4098 -2.2242 -2.0200
-1.8765 -1.7562 -1.6620 -1.6023 -1.5781 -1.5930
-1.6135 -1.6704 -1.7879 -1.9054 -2.0863 -2.3007
-2.5292 -2.8061 -3.0532 -3.3124 -3.5073 -3.6537
-3.7805 -3.8392 -3.8672 -3.8644 -3.8215 -3.7152
-3.6033 -3.4691 -3.3134 -3.1567 -2.9526 -2.7521
-2.5507 -2.3586 -2.1843 -2.0388 -1.9195 -1.7647
-1.6127 -1.4869 -1.3545 -1.2072 -1.0953 -0.9993
-0.9247 -0.9051 -0.8967 -0.8967 -0.9032 -0.9480
-0.9900 -1.0403 -1.1522 -1.2809 -1.4683 -1.7107
-1.9802 -2.2907 -2.5984 -2.9145 -3.2613 -3.5951
-3.9065 -4.1965 -4.4594 -4.6776 -4.8352 -4.9294
-4.9732 -4.9536 -4.8445 -4.7252 -4.6068 -4.4539
-4.3206 -4.2245 -4.1630 -4.1332 -4.1257 -4.1341
-4.1658 -4.2199 -4.2889 -4.3672 -4.4371 -4.5145
-4.5668 -4.6283 -4.6768 -4.6619 -4.6479 -4.5901
-4.5220 -4.4400 -4.3085 -4.1659 -3.9897 -3.8349
-3.7305 -3.6428 -3.5701 -3.5384 -3.5552 -3.5934
-3.6550 -3.7342 -3.8144 -3.9188 -3.9916 -3.9878
-3.9813 -3.9095 -3.7557 -3.5524 -3.2839 -3.0023
-2.7049 -2.4168 -2.1949 -1.9907 -1.8005 -1.6737
-1.5945 -1.5124 -1.4220 -1.3567 -1.2393 -1.0957
-0.9456 -0.7311 -0.5157 -0.2854 -0.0412 0.2302
0.5593 0.8856 1.2269 1.5746 1.8618 2.1499
2.4147 2.6170 2.7988 2.9182 3.0291 3.0963
3.1326 3.1923 3.1913 3.1951 3.2165 3.2249
3.2361 3.2379 3.2249 3.1867 3.1522 3.0990
2.9964 2.8603 2.6962 2.5181 2.2934 2.0295
1.7573 1.4785 1.1988 0.9358 0.7344 0.5535
0.4127 0.3792 0.3950 0.4566 0.5908 0.7829
1.0430 1.3255 1.6407 1.9670 2.2877 2.6019
2.8695 3.1362 3.3739 3.5949 3.8336 4.0191
4.1739 4.2867 4.3632 4.4191 4.3874 4.3809
4.4312 4.4536 4.4890 4.5403 4.6447 4.7519
4.8228 4.9281 4.9971 5.0242 5.0391 4.9850
4.8871 4.7463 4.5664 4.3631 4.1477 3.9556
3.8036 3.7048 3.6265 3.5957 3.5593 3.4922
3.4353 3.3439 3.2554 3.1565 3.0362 2.9178
2.7770 2.6139 2.4311 2.2325 2.0236 1.8129
1.6134 1.4409 1.2591 1.0856 0.9439 0.8115
0.7341 0.6866 0.6670 0.6847 0.7332 0.8376
0.9905 1.1835 1.3868 1.6571 1.9536 2.2026
2.4525 2.7191 2.9737 3.1620 3.3074 3.3820
3.4212 3.4753 3.4892 3.5144 3.5265 3.5647
3.6076 3.5722 3.5610 3.5274 3.4789 3.4416
3.3801 3.3568 3.3447 3.3335 3.3363 3.3419
3.3530 3.3773 3.4341 3.5358 3.6588 3.7856
3.9302 4.0821 4.2238 4.3357 4.4094 4.4457
4.4495 4.4010 4.2854 4.1231 3.9227 3.6970
3.4686 3.2485 3.0350 2.8802 2.7795 2.7236
2.7133 2.7609 2.8560 2.9529 3.0853 3.2037
3.3408 3.4984 3.5832 3.6596 3.7781 3.8228
3.8284 3.9095 3.9701 3.9999 4.0065 4.0176
4.0335 4.0027 3.9841 3.9710 3.9505 3.9244
3.9123 3.9085 3.8992 3.8749 3.8647 3.8488
3.7696 3.7006 3.6139 3.5076 3.3668 3.1766
2.9891 2.7374 2.4698 2.1845 1.8898 1.6073
1.3183 1.1048 0.8987 0.7197 0.6096 0.4987
0.4232 0.3635 0.3029 0.2553 0.2087 0.1761
0.1257 0.0688 0.0586 0.0464 0.0576 0.1117
0.1909 0.3187 0.4352 0.5574 0.6683 0.7401
0.8296 0.8576 0.8324 0.8026 0.7531 0.6440
0.4585 0.2403 -0.0068 -0.3051 -0.6706 -1.0417
-1.4212 -1.8054 -2.1634 -2.5224 -2.8385 -3.1005
-3.3093 -3.4716 -3.5788 -3.6226 -3.6105 -3.5117
-3.3662 -3.1406 -2.8656 -2.5840 -2.2623 -1.9835
-1.7094 -1.4950 -1.3822 -1.2777 -1.2358 -1.2349
-1.3067 -1.3840 -1.4530 -1.6134 -1.7374 -1.8708
-2.0144 -2.1421 -2.3062 -2.4461 -2.5887 -2.7482
-2.9225 -3.1165 -3.3225 -3.4988 -3.6852 -3.8857
-4.0153 -4.1431 -4.2680 -4.3351 -4.3724 -4.3929
-4.3305 -4.2186 -4.0704 -3.8540 -3.6079 -3.3226
-3.0177 -2.6289 -2.2159 -1.8084 -1.3851 -1.0028
-0.6364 -0.3222 -0.0322 0.1766 0.2857 0.3659
0.3500 0.2736 0.1477 -0.0854 -0.3558 -0.7148
-1.1651 -1.6444 -2.1852 -2.7064 -3.2313 -3.7507
-4.2029 -4.6113 -4.9544 -5.2528 -5.4849 -5.6248
-5.6938 -5.6770 -5.5819 -5.3787 -5.0616 -4.6990
-4.2617 -3.7880 -3.2808 -2.7344 -2.2039 -1.6454
-1.0720 -0.5555 -0.1378 0.2958 0.6874 0.9606
1.1601 1.2468 1.3018 1.2421 1.1107 0.9969
0.7983 0.5913 0.3619 0.0999 -0.1388 -0.3775
-0.6180 -0.8465 -1.0488 -1.2595 -1.4656 -1.6632
-1.8777 -2.0800 -2.2525 -2.3672 -2.4017 -2.3514
-2.2264 -2.0521 -1.7621 -1.3976 -1.0190 -0.5659
-0.0736 0.4821 1.0453 1.5721 2.1324 2.6294
3.0611 3.4107 3.6671 3.8806 3.9944 4.0578
4.0093 3.8470 3.6643 3.4051 3.0815 2.7282
2.3841 2.0056 1.5832 1.1925 0.8261 0.4503
0.0652 -0.2704 -0.5856 -0.8933 -1.1142 -1.2569
-1.3576 -1.3996 -1.3791 -1.2849 -1.1339 -0.9437
-0.6817 -0.3917 -0.0616 0.3141 0.7253 1.1561
1.5924 2.0670 2.5136 2.9210 3.3154 3.6455
3.9019 4.1173 4.2842 4.3877 4.4613 4.5042
4.5033 4.4799 4.4231 4.3401 4.2338 4.0809
3.8888 3.6566 3.4105 3.1746 2.9471 2.7084
2.4911 2.2972 2.1023 1.9196 1.6855 1.4366
1.2137 0.9946 0.7774 0.5004 0.2375 0.0669
-0.1177 -0.2977 -0.4264 -0.5084 -0.5411 -0.5411
-0.4935 -0.4339 -0.3378 -0.2054 -0.0796 0.0463
0.1843 0.3055 0.4137 0.5544 0.6896 0.8202
0.9236 1.0048 1.0337 1.0206 1.0085 0.9665
0.9143 0.7931 0.6700 0.5171 0.2756 0.0080
-0.3090 -0.6577 -1.0708 -1.5090 -1.9146 -2.3174
-2.7426 -3.1510 -3.4997 -3.8708 -4.2008 -4.4339
-4.6400 -4.7966 -4.8759 -4.8796 -4.8340 -4.7538
-4.6717 -4.5757 -4.4461 -4.3221 -4.2317 -4.1636
-4.0816 -4.0517 -4.0256 -4.0107 -4.0965 -4.1394
-4.1608 -4.2839 -4.4191 -4.4816 -4.5431 -4.6765
-4.7958 -4.9114 -5.0671 -5.2275 -5.4103 -5.5734
-5.7226 -5.8942 -6.0322 -6.1478 -6.2317 -6.2728
-6.2970 -6.2569 -6.1376 -5.9679 -5.7824 -5.5623
-5.2807 -4.9348 -4.5526 -4.1460 -3.6985 -3.2827
-2.8603 -2.4267 -2.0771 -1.7573 -1.4850 -1.2846
-1.1205 -1.0189 -0.9806 -1.0030 -1.0991 -1.2632
-1.4478 -1.6594 -1.9000 -2.1396 -2.4063 -2.6795
-2.9294 -3.1895 -3.4459 -3.6482 -3.8375 -4.0529
-4.1909 -4.2235 -4.3084 -4.4399 -4.4781 -4.5154
-4.6114 -4.6646 -4.7038 -4.7271 -4.7075 -4.6721
-4.5714 -4.4194 -4.2357 -3.9868 -3.7024 -3.3994
-3.0581 -2.7262 -2.4111 -2.1090 -1.8722 -1.6708
-1.5244 -1.4526 -1.4312 -1.4685 -1.5515 -1.6671
-1.7771 -1.8815 -1.9990 -2.0941 -2.1986 -2.2731
-2.3310 -2.4084 -2.4140 -2.3990 -2.3543 -2.2545
-2.1231 -1.9226 -1.6802 -1.3874 -1.0555 -0.6770
-0.2359 0.2060 0.6955 1.2456 1.8041 2.3542
2.9090 3.4479 3.9327 4.3989 4.8064 5.1569
5.4338 5.6035 5.7247 5.7602 5.7322 5.6585
5.5429 5.4217 5.2706 5.1317 5.0133 4.9042
4.8072 4.7242 4.6888 4.6767 4.6552 4.6580
4.6571 4.6319 4.6282 4.6105 4.6039 4.5955
4.5573 4.5470 4.5396 4.5274 4.4901 4.4687
4.4640 4.3848 4.3027 4.2225 4.0985 3.9661
3.8169 3.6379 3.4468 3.2733 3.1064 2.9675
2.8481 2.7167 2.6234 2.5404 2.4659 2.4015
2.3372 2.2803 2.1805 2.0481 1.8924 1.7199
1.5250 1.3153 1.1092 0.9199 0.7978 0.7129
0.6402 0.5339 0.5572 0.6672 0.5842 0.5851
0.6010 0.4593 0.3464 0.2215 0.0751 -0.1319
-0.3491 -0.5198 -0.6979 -0.8172 -0.8965 -0.9422
-0.9478 -0.9506 -0.9300 -0.9170 -0.9207 -0.9235
-0.9291 -0.9301 -0.9282 -0.9338 -0.9142 -0.8648
-0.8154 -0.7445 -0.6839 -0.6103 -0.5497 -0.5394
-0.5236 -0.5227 -0.5217 -0.5003 -0.4872 -0.4434
-0.3912 -0.3437 -0.2532 -0.1656 -0.0248 0.1607
0.3463 0.5896 0.8414 1.0912 1.3336 1.5201
1.6861 1.8492 1.9798 2.0926 2.1802 2.2623
2.3527 2.4562 2.5569 2.6865 2.8571 2.9960
3.1545 3.2925 3.4221 3.5489 3.6030 3.6524
3.6356 3.5890 3.5545 3.5107 3.4901 3.4501
3.4407 3.5302 3.6505 3.7624 3.9377 4.1064
4.2715 4.4822 4.6547 4.8439 5.0257 5.1880
5.3437 5.4369 5.5152 5.5357 5.4919 5.4304
5.3250 5.1795 5.0369 4.8662 4.6518 4.4168
4.1362 3.8285 3.5012 3.1516 2.8066 2.4663
2.1241 1.7903 1.4658 1.1534 0.8271 0.5194
0.2080 -0.1267 -0.4605 -0.8456 -1.2438 -1.6195
-1.9822 -2.3160 -2.6097 -2.8960 -3.1319 -3.3183
-3.4815 -3.5859 -3.6876 -3.7529 -3.7985 -3.8414
-3.8750 -3.8937 -3.8899 -3.8927 -3.9011 -3.9356
-3.9683 -4.0718 -4.2331 -4.3683 -4.4979 -4.6154
-4.7515 -4.9035 -5.0816 -5.2606 -5.3762 -5.5040
-5.5720 -5.5720 -5.5879 -5.6149 -5.7017 -5.7473
-5.7679 -5.8117 -5.8471 -5.8564 -5.8192 -5.7865
-5.7278 -5.6541 -5.5628 -5.4238 -5.2570 -5.0518
-4.8299 -4.5987 -4.3479 -4.1316 -3.9125 -3.6757
-3.4724 -3.2580 -3.0808 -2.9083 -2.7181 -2.5475
-2.3405 -2.1652 -2.0338 -1.9004 -1.7848 -1.6702
-1.5779 -1.4753 -1.3643 -1.2991 -1.2553 -1.2814
-1.3606 -1.4203 -1.4567 -1.4949 -1.5322 -1.5621
-1.6003 -1.6497 -1.7038 -1.7066 -1.6833 -1.6283
-1.5584 -1.5127 -1.4577 -1.4605 -1.4577 -1.4139
-1.3523 -1.2954 -1.2498 -1.1677 -1.1183 -1.0503
-0.9430 -0.8060 -0.6633 -0.5561 -0.4377 -0.3892
-0.4004 -0.4163 -0.4890 -0.5692 -0.6251 -0.7053
-0.8135 -0.8806 -0.8871 -0.8433 -0.7557 -0.6774
-0.6196 -0.5636 -0.5068 -0.4769 -0.4415 -0.3725
-0.2690 -0.1655 -0.1441 -0.1469 -0.1497 -0.2075
-0.2886 -0.3604 -0.4126 -0.4658 -0.4816 -0.4425
-0.3903 -0.2905 -0.1768 -0.0397 0.1188 0.2736
0.4563 0.6446 0.8423 1.0073 1.1658 1.3169
1.4250 1.5378 1.6078 1.6945 1.7513 1.7607
1.8045 1.7774 1.7578 1.7625 1.7634 1.7849
1.7802 1.8054 1.8389 1.8622 1.9089 1.9611
2.0161 2.0990 2.2175 2.3433 2.4720 2.6342
2.8142 3.0025 3.2440 3.4556 3.6272 3.7941
3.8752 3.8854 3.8500 3.8099 3.7605 3.6803
3.6057 3.5031 3.3819 3.2691 3.1386 3.0388
2.9661 2.9036 2.8933 2.8775 2.8626 2.8439
2.8252 2.8439 2.8597 2.8737 2.8691 2.8429
2.7972 2.7124 2.6350 2.5735 2.5082 2.4541
2.3842 2.3301 2.3161 2.2928 2.2797 2.2816
2.2741 2.2685 2.2788 2.2937 2.3151 2.3580
2.4102 2.4746 2.5417 2.5780 2.5762 2.5324
2.4475 2.3347 2.1752 2.0111 1.8041 1.5253
1.2186 0.8615 0.4941 0.1230 -0.2434 -0.5595
-0.8290 -1.0406 -1.1889 -1.2830 -1.3017 -1.2513
-1.0919 -0.8579 -0.6192 -0.3311 -0.0122 0.2945
0.6050 0.8866 1.1616 1.4423 1.6856 1.9131
2.1080 2.2991 2.4511 2.5770 2.6581 2.6739
2.6814 2.5965 2.4846 2.3522 2.1918 2.0156
1.8152 1.6361 1.4552 1.3172 1.1942 1.1103
1.0590 1.0245 1.0580 1.0655 1.0748 1.1140
1.1615 1.2240 1.2762 1.3424 1.3815 1.4356
1.4943 1.5307 1.5661 1.5540 1.5661 1.5605
1.5335 1.5353 1.5185 1.5074 1.4850 1.4700
1.4542 1.4085 1.3805 1.3190 1.2537 1.1931
1.1176 1.0225 0.9059 0.7716 0.5861 0.4220
0.2122 -0.0013 -0.1766 -0.4106 -0.6270 -0.8041
-0.9673 -1.0829 -1.1473 -1.1594 -1.0913 -0.9701
-0.7986 -0.6065 -0.4135 -0.2196 0.0079 0.2839
0.5590 0.8415 1.1044 1.3645 1.6144 1.8149
1.9957 2.1487 2.2820 2.4013 2.4778 2.5608
2.6344 2.6810 2.7323 2.7845 2.8470 2.9206
2.9775 3.0241 3.0679 3.0250 2.9225 2.7705
2.5411 2.2922 1.9770 1.6507 1.3346 0.9971
0.7006 0.3882 0.0842 -0.1395 -0.3428 -0.4929
-0.6020 -0.7083 -0.7596 -0.8146 -0.8631 -0.8985
-0.9433 -0.9843 -1.0179 -1.0496 -1.1177 -1.1587
-1.1690 -1.1848 -1.1802 -1.1746 -1.1382 -1.0832
-1.0179 -0.9126 -0.8119 -0.7149 -0.6254 -0.5462
-0.4697 -0.4138 -0.3784 -0.3644 -0.3923 -0.4641
-0.5369 -0.6329 -0.7560 -0.8912 -1.0460 -1.2353
-1.4450 -1.6688 -1.9196 -2.1900 -2.4837 -2.8138
-3.1429 -3.4404 -3.7434 -4.0269 -4.2805 -4.4959
-4.6395 -4.7374 -4.7849 -4.7747 -4.7215 -4.6301
-4.5089 -4.3971 -4.2656 -4.1360 -4.0204 -3.8945
-3.8190 -3.7472 -3.6465 -3.5607 -3.4573 -3.3323
-3.2018 -3.0582 -2.9771 -2.9090 -2.8522 -2.8596
-2.8690 -2.9277 -3.0564 -3.2177 -3.3659 -3.4946
-3.6401 -3.7352 -3.7771 -3.7893 -3.7510 -3.6653
-3.5385 -3.3884 -3.2112 -3.0536 -2.8905 -2.7534
-2.6760 -2.6164 -2.6210 -2.6453 -2.6742 -2.7712
-2.9166 -3.0518 -3.2113 -3.3679 -3.4807 -3.5917
-3.6859 -3.7577 -3.7810 -3.8285 -3.8677 -3.8621
-3.9022 -3.9330 -3.9843 -4.0150 -4.0318 -4.0523
-4.0122 -3.9535 -3.8099 -3.6095 -3.3549 -3.0715
-2.7927 -2.4664 -2.1438 -1.7848 -1.4063 -1.0231
-0.6343 -0.2222 0.1872 0.5573 0.9303 1.2100
1.4608 1.6789 1.8309 1.9820 2.0463 2.0603
2.0491 1.9624 1.7880 1.5586 1.2621 0.9293
0.5815 0.1666 -0.2353 -0.6437 -1.0455 -1.3626
-1.6572 -1.8754 -1.9957 -2.0563 -2.0460 -1.9966
-1.8959 -1.7393 -1.5631 -1.3915 -1.2181 -1.0503
-0.8899 -0.7873 -0.7351 -0.6624 -0.6158 -0.5515
-0.4843 -0.3967 -0.2596 -0.1207 0.0583 0.2457
0.4769 0.7529 0.9944 1.1790 1.3291 1.4484
1.5230 1.5799 1.6116 1.6414 1.6713 1.6610
1.6424 1.6228 1.5845 1.5305 1.4642 1.4167
1.3691 1.3290 1.2843 1.1938 1.0726 0.9244
0.7640 0.6073 0.4787 0.3920 0.3313 0.2885
0.2791 0.2819 0.2996 0.3108 0.2819 0.2866
0.3108 0.3406 0.3919 0.4805 0.5756 0.6408
0.7248 0.8021 0.8543 0.9084 0.9970 1.0762
1.1368 1.2226 1.2804 1.3326 1.3662 1.3774
1.3830 1.3205 1.2319 1.1396 0.9885 0.7965
0.5997 0.3918 0.1373 -0.1173 -0.3569 -0.6161
-0.8520 -1.0646 -1.2865 -1.4618 -1.5606 -1.6548
-1.6856 -1.6623 -1.6036 -1.4982 -1.4106 -1.3229
-1.2651 -1.1915 -1.0954 -1.0339 -0.9733 -0.9276
-0.8829 -0.8344 -0.7999 -0.7840 -0.8008 -0.8680
-0.9761 -1.1216 -1.3416 -1.5710 -1.7920 -2.0307
-2.2628 -2.5155 -2.7421 -2.9388 -3.1374 -3.3090
-3.4722 -3.6139 -3.7258 -3.8228 -3.8852 -3.9281
-3.9925 -4.0456 -4.1072 -4.1985 -4.2675 -4.3393
-4.3888 -4.3776 -4.3645 -4.3412 -4.2704 -4.1865
-4.0914 -3.9655 -3.8517 -3.7212 -3.6037 -3.4807
-3.3436 -3.2485 -3.1450 -3.0537 -2.9791 -2.9008
-2.8374 -2.8187 -2.7870 -2.7628 -2.8019 -2.8523
-2.9455 -3.0602 -3.2159 -3.4164 -3.6048 -3.8369
-4.0682 -4.3003 -4.5278 -4.6891 -4.8346 -4.9558
-5.0136 -5.0090 -4.9726 -4.8934 -4.7694 -4.6015
-4.3936 -4.1801 -3.9144 -3.6365 -3.3783 -3.1153
-2.8617 -2.6119 -2.4095 -2.2324 -2.0823 -1.9909
-1.9051 -1.8566 -1.8296 -1.7970 -1.7672 -1.7280
-1.6898 -1.6385 -1.6087 -1.5676 -1.5033 -1.4203
-1.2851 -1.1248 -0.9141 -0.6586 -0.3929 -0.1160
0.1740 0.4612 0.7288 0.9945 1.2276 1.4392
1.6723 1.8737 2.0332 2.1795 2.2840 2.3157
2.2970 2.2271 2.0788 1.8961 1.6863 1.4345
1.1725 0.9189 0.6597 0.4173 0.1944 -0.0536
-0.2839 -0.4816 -0.6457 -0.7809 -0.8778 -0.9095
-0.8900 -0.8424 -0.7753 -0.6877 -0.5767 -0.4369
-0.3007 -0.1618 -0.0350 0.0927 0.2130 0.3146
0.4088 0.4834 0.5701 0.6363 0.7202 0.7985
0.8750 0.9719 1.0167 1.0763 1.1108 1.1043
1.0950 1.0922 1.1117 1.1136 1.1136 1.0959
1.0707 1.0250 0.9513 0.8600 0.7360 0.5914
0.4712 0.3938 0.3117 0.2763 0.2455 0.2147
0.2138 0.1839 0.1783 0.1839 0.2044 0.2231
0.2166 0.2809 0.3797 0.4702 0.6025 0.7163
0.8394 0.9755 1.0575 1.1396 1.1797 1.1601
1.1172 1.0445 0.9232 0.7824 0.6407 0.4580
0.2715 0.0962 -0.0679 -0.2087 -0.3122 -0.3868
-0.4455 -0.4633 -0.4558 -0.4148 -0.3271 -0.1901
-0.0195 0.1978 0.4504 0.6947 0.9847 1.2877
1.5833 1.8826 2.1324 2.3674 2.5958 2.7711
2.9035 3.0089 3.0872 3.1207 3.0853 3.0144
2.9007 2.7673 2.6340 2.5007 2.3944 2.2918
2.2293 2.1790 2.1277 2.1062 2.0820 2.0363
1.9869 1.9347 1.8536 1.7342 1.5804 1.4069
1.1943 0.9808 0.7692 0.5389 0.3263 0.1286
-0.0579 -0.1959 -0.3068 -0.4178 -0.5026 -0.5567
-0.5800 -0.5623 -0.5260 -0.4971 -0.4337 -0.3777
-0.3498 -0.3591 -0.3684 -0.3824 -0.4533 -0.4990
-0.5624 -0.6202 -0.7106 -0.8225 -0.8934 -1.0165
-1.1293 -1.2235 -1.3083 -1.3736 -1.4454 -1.4911
-1.4855 -1.4697 -1.4258 -1.3680 -1.3242 -1.2207
-1.0762 -0.9373 -0.7844 -0.6203 -0.4618 -0.2940
-0.1364 0.0389 0.2030 0.3494 0.4985 0.6263
0.7661 0.8482 0.9051 0.9535 0.9740 0.9917
0.9572 0.8957 0.7894 0.6486 0.5199 0.3596
0.1927 0.0425 -0.0880 -0.1896 -0.2866 -0.3332
-0.3258 -0.2773 -0.1626 -0.0022 0.2085 0.4332
0.6765 0.9506 1.2546 1.5856 1.9072 2.2308
2.5487 2.8629 3.1464 3.3981 3.6377 3.8484
4.0331 4.1533 4.2344 4.2978 4.3249 4.3230
4.2876 4.2726 4.2652 4.2624 4.3015 4.3649
4.4600 4.5952 4.7668 4.9411 5.1248 5.2926
5.4371 5.5658 5.6730 5.7830 5.8325 5.8474
5.8352 5.7821 5.7373 5.6767 5.6198 5.5658
5.5070 5.4501 5.3662 5.2860 5.2161 5.1406
5.0622 4.9718 4.8776 4.7629 4.6566 4.5848
4.4981 4.4095 4.3415 4.2492 4.1345 4.0142
3.8809 3.7307 3.5601 3.3858 3.1899 2.9578
2.7256 2.5168 2.3312 2.1904 2.0804 2.0160
2.0086 1.9974 1.9964 2.0421 2.1102 2.1913
2.3023 2.4272 2.5838 2.7451 2.9111 3.0640
3.2010 3.3428 3.4556 3.5898 3.7316 3.8295
3.9134 3.9935 4.0374 4.0607 4.0700 4.0588
4.0187 3.9693 3.9171 3.8527 3.7772 3.6802
3.5982 3.5152 3.4229 3.3315 3.2317 3.1161
2.9930 2.8858 2.7991 2.6937 2.5902 2.5156
2.4158 2.3506 2.2890 2.2126 2.1781 2.1314
2.1100 2.0764 2.0298 2.0037 1.9431 1.9114
1.8685 1.8079 1.7594 1.7006 1.6475 1.5692
1.4675 1.3482 1.2167 1.0899 0.9640 0.8139
0.6927 0.5939 0.4950 0.4503 0.4158 0.3934
0.3785 0.3691 0.3710 0.3803 0.4092 0.4381
0.4726 0.5062 0.5761 0.6908 0.7737 0.8716
1.0012 1.1094 1.2175 1.3285 1.4217 1.5140
1.5830 1.5933 1.6147 1.6436 1.6333 1.6035
1.5410 1.4842 1.4058 1.2986 1.2109 1.1214
1.0683 1.0189 1.0039 1.0440 1.0552 1.0776
1.1223 1.1923 1.2585 1.3228 1.4114 1.4934
1.5857 1.6864 1.7992 1.9111 2.0183 2.1563
2.2784 2.3857 2.5199 2.6747 2.8248 2.9656
3.1474 3.3423 3.4672 3.5735 3.6844 3.7450
3.7851 3.7749 3.7133 3.6341 3.4970 3.3217
3.0681 2.7334 2.4033 1.9921 1.5651 1.1669
0.7408 0.3996 0.1133 -0.1468 -0.3594 -0.5077
-0.5981 -0.6298 -0.5897 -0.5375 -0.4312 -0.2709
-0.1133 0.0228 0.1571 0.2932 0.4396 0.5832
0.6540 0.7184 0.8247 0.9254 0.9729 0.9990
1.0018 0.9375 0.8563 0.7062 0.4796 0.2400
-0.0071 -0.2765 -0.5721 -0.8360 -1.1185 -1.4486
-1.7898 -2.1087 -2.3977 -2.7026 -2.9777 -3.2500
-3.5390 -3.7973 -3.9949 -4.1171 -4.2560 -4.3875
-4.4313 -4.4714 -4.4957 -4.5376 -4.5525 -4.4444
-4.3353 -4.2411 -4.1293 -3.9875 -3.8542 -3.7274
-3.5988 -3.5521 -3.4915 -3.3666 -3.2864 -3.2892
-3.2734 -3.2035 -3.1820 -3.1662 -3.1699 -3.2594
-3.3126 -3.3032 -3.3685 -3.5224 -3.6119 -3.7359
-3.9475 -4.1322 -4.4137 -4.7224 -4.9508 -5.2287
-5.5774 -5.8683 -6.0688 -6.2925 -6.4977 -6.6319
-6.7774 -6.8855 -6.9042 -6.9107 -6.9378 -6.9135
-6.8511 -6.8324 -6.8017 -6.7504 -6.7168 -6.6600
-6.5947 -6.5593 -6.5537 -6.5611 -6.5919 -6.6497
-6.6563 -6.6516 -6.7075 -6.7243 -6.6814 -6.6563
-6.6488 -6.5836 -6.5314 -6.5388 -6.5239 -6.5062
-6.4885 -6.4708 -6.4447 -6.3962 -6.3570 -6.3253
-6.3431 -6.3561 -6.3123 -6.2470 -6.1678 -6.1035
-6.0065 -5.9049 -5.8592 -5.8070 -5.8060 -5.8564
-5.9189 -6.0261 -6.1147 -6.1958 -6.2573 -6.2667
-6.3049 -6.2667 -6.1986 -6.2117 -6.1623 -6.0998
-6.0532 -5.9702 -5.9208 -5.8770 -5.8033 -5.7595
-5.7306 -5.6467 -5.5479 -5.4640 -5.3502 -5.2160
-5.1022 -5.0024 -4.9325 -4.9008 -4.8589 -4.8225
-4.7862 -4.7218 -4.6650 -4.5792 -4.5307 -4.5410
-4.5027 -4.4337 -4.3480 -4.2324 -4.0925 -3.9219
-3.7354 -3.5573 -3.4063 -3.2552 -3.0632 -2.9084
-2.7975 -2.7042 -2.6427 -2.5793 -2.5271 -2.4767
-2.4394 -2.4133 -2.3938 -2.3826 -2.3472 -2.2642
-2.1383 -2.0013 -1.8428 -1.6954 -1.5686 -1.4596
-1.3533 -1.2358 -1.1183 -1.0036 -0.9039 -0.8069
-0.7426 -0.7146 -0.6801 -0.6466 -0.5841 -0.4862
-0.3687 -0.2382 -0.0881 0.1366 0.3166 0.4508
0.6578 0.8508 0.9720 1.0876 1.2601 1.4578
1.6275 1.8261 2.0535 2.2708 2.4880 2.6792
2.8787 3.1202 3.3598 3.6041 3.8884 4.1756
4.4106 4.5625 4.6987 4.8385 4.8870 4.8814
4.8786 4.8572 4.8059 4.7247 4.6408 4.5495
4.4320 4.3266 4.1961 4.0814 4.0105 3.9359
3.9098 3.8762 3.8958 3.9322 3.8790 3.9079
3.9387 3.8669 3.8063 3.8277 3.8165 3.7195
3.6617 3.6328 3.5853 3.5172 3.4575 3.3512
3.2384 3.1461 3.0351 2.9689 2.9615 3.0025
2.9978 2.9988 3.0566 3.0966 3.1572 3.2104
3.2561 3.2812 3.2589 3.2113 3.0929 2.9223
2.7320 2.5521 2.3488 2.1465 1.9656 1.7642
1.5768 1.4099 1.3344 1.2961 1.2672 1.3054
1.3763 1.4500 1.5301 1.6159 1.6793 1.7390
1.7781 1.8061 1.8061 1.8117 1.8191 1.7874
1.7828 1.7333 1.6905 1.6438 1.5842 1.5338
1.4527 1.4387 1.4163 1.4126 1.4182 1.3976
1.3846 1.2960 1.2298 1.1636 1.1067 1.0778
1.0060 0.9519 0.8466 0.6974 0.5407 0.3748
0.2163 0.0717 -0.0392 -0.1539 -0.2453 -0.3423
-0.4271 -0.5026 -0.5651 -0.5530 -0.5586 -0.5139
-0.4383 -0.3647 -0.2425 -0.1195 0.0269 0.1686
0.3094 0.4316 0.5285 0.6348 0.6777 0.6917
0.7159 0.7056 0.7178 0.7010 0.6665 0.6254
0.5210 0.4306 0.3215 0.1853 0.0707 -0.0310
-0.1587 -0.3238 -0.4832 -0.6287 -0.7555 -0.8310
-0.8664 -0.8720 -0.8217 -0.7648 -0.6865 -0.5597
-0.4543 -0.3639 -0.2576 -0.1607 -0.0926 -0.0469
0.0202 0.0845 0.1507 0.2785 0.4053 0.5302
0.6673 0.7857 0.9004 0.9647 0.9917 0.9693
0.8975 0.8463 0.7446 0.5908 0.4267 0.1917
-0.0778 -0.3239 -0.5552 -0.7677 -0.9421 -1.0605
-1.1752 -1.2638 -1.3263 -1.3887 -1.3477 -1.2778
-1.1864 -1.0289 -0.8937 -0.7240 -0.5207 -0.3287
-0.1254 0.0797 0.2280 0.3333 0.4238 0.4517
0.4946 0.5263 0.5188 0.5142 0.4946 0.4648
0.4303 0.4237 0.4386 0.4787 0.5225 0.5458
0.5570 0.5412 0.5272 0.4871 0.4572 0.4209
0.3817 0.3481 0.2549 0.2390 0.2195 0.1747
0.1961 0.2045 0.2549 0.3071 0.3826 0.4376
0.4665 0.5392 0.5420 0.5588 0.5998 0.6586
0.7341 0.8329 1.0175 1.2282 1.5023 1.7886
2.0786 2.3890 2.6277 2.8300 2.9988 3.0752
3.1191 3.0930 3.0100 2.9307 2.7908 2.6594
2.5167 2.3591 2.1997 2.0225 1.8668 1.6748
1.5041 1.3400 1.1246 0.9428 0.7265 0.4785
0.2342 -0.0390 -0.2432 -0.3719 -0.4418 -0.4157
-0.3066 -0.1602 0.0356 0.2705 0.4132 0.5763
0.7320 0.7003 0.6733 0.6686 0.5987 0.5530
0.5334 0.5092 0.5036 0.4439 0.3199 0.1809
-0.0130 -0.1650 -0.2741 -0.4317 -0.5566 -0.6442
-0.7561 -0.8242 -0.8680 -0.9352 -0.9762 -1.0405
-1.1347 -1.2261 -1.3109 -1.3986 -1.4806 -1.5450
-1.6075 -1.6298 -1.6317 -1.6364 -1.6047 -1.5599
-1.5459 -1.5236 -1.4443 -1.3641 -1.3474 -1.3017
-1.2150 -1.1674 -1.1684 -1.2019 -1.2262 -1.2570
-1.2793 -1.2915 -1.2169 -1.1414 -1.2654 -1.3745
-1.3381 -1.2766 -1.3073 -1.4118 -1.4603 -1.5022
-1.5656 -1.5815 -1.6281 -1.6775 -1.5974 -1.5423
-1.5685 -1.5675 -1.5871 -1.5834 -1.5666 -1.5806
-1.5871 -1.5759 -1.5303 -1.4753 -1.3886 -1.3214
-1.2599 -1.1536 -1.0296 -0.9121 -0.9196 -0.8991
-0.8096 -0.8767 -0.8982 -0.7359 -0.6996 -0.8189
-0.7760 -0.7332 -0.9364 -1.0744 -1.0996 -1.1844
-1.2777 -1.3681 -1.4558 -1.5910 -1.6702 -1.6208
-1.5957 -1.5957 -1.5164 -1.4232 -1.5276 -1.5724
-1.3943 -1.4512 -1.4418 -1.0549 -1.1827 -1.4829
-1.2563 -1.5165 -1.7682 -1.5594 -1.7953 -1.8437
-1.7813 -1.9482 -1.7990 -1.8009 -1.8456 -1.6349
-1.6023 -1.5025 -1.3394 -1.3226 -1.2499 -1.2247
-1.2294 -1.2629 -1.3692 -1.4261 -1.5399 -1.6322
-1.7012 -1.6788 -1.5166 -1.5268 -1.5520 -1.5324
-1.4625 -1.3105 -1.2947 -1.3339 -1.4299 -1.4038
-1.2863 -1.4448 -1.6052 -1.5866 -1.7246 -1.8309
-1.6379 -1.7069 -1.8421 -1.5456 -1.4327 -1.4728
-1.2976 -1.2668 -1.2724 -1.1391 -1.1083 -0.9936
-0.9106 -1.1139 -0.9629 -0.7326 -1.0132 -0.7531
-0.1974 -0.3242 -0.1237 0.3490 0.2744 0.3368
0.4832 0.3629 0.2818 -0.0007 -0.2618 -0.2543
-0.3867 -0.5760 -0.6627 -0.6273 -0.5574 -0.6254
-0.6609 -0.5667 -0.4567 -0.5052 -0.6656 -0.6208
-0.5210 -0.5378 -0.4977 -0.4651 -0.3905 -0.1835
-0.1034 -0.0521 0.2472 0.4467 0.4719 0.7563
1.0640 1.1945 1.3959 1.5208 1.6346 1.8220
1.8136 1.8621 1.9609 1.9012 1.9040 1.8611
1.7781 1.8434 1.8713 1.8490 1.9487 1.9981
1.9291 1.9254 1.8890 1.7352 1.5067 1.2336
1.0760 1.0862 1.0415 0.7440 0.6816 0.9855
0.8857 0.7198 0.9007 0.8923 0.8522 0.8680
0.8149 0.8745 0.9267 1.0078 1.0722 1.0918
1.2493 1.3799 1.4572 1.5738 1.7052 1.8255
1.8992 1.9616 1.9859 2.0082 2.0157 1.9187
1.8320 1.7434 1.5756 1.4376 1.3024 1.1476
1.0171 0.8781 0.9471 0.8903 0.3802 0.3877
0.9192 0.8399 0.3858 0.4856 0.7299 0.5602
0.6282 0.7877 0.7131 0.8324 0.9275 0.9946
1.1074 1.1214 1.1652 1.1568 1.1289 1.1540
1.1000 0.9853 0.8855 0.7904 0.7065 0.6328
0.5750 0.5246 0.4734 0.4631 0.4416 0.4500
0.4733 0.4593 0.4827 0.5554 0.7036 0.8062
0.8714 0.9861 1.0989 1.2211 1.2901 1.3796
1.3973 1.4588 1.5222 1.0625 0.9460 1.4392
1.3133 0.7959 0.5758 0.4798 0.2523 -0.1235
-0.3911 -0.5552 -0.8275 -1.0978 -1.2219 -1.3291
-1.5230 -1.5930 -1.5902 -1.6461 -1.6415 -1.5594
-1.4541 -1.3571 -1.2061 -1.0737 -0.9273 -0.7296
-0.5515 -0.3604 -0.1674 0.0340 0.1832 0.2969
0.3920 0.4377 0.4750 0.5160 0.5281 0.4899
0.3920 0.2708 0.1346 -0.0108 -0.1376 -0.2411
-0.3372 -0.4407 -0.4686 -0.5675 -0.4146 -0.4687
-0.9619 -0.6309 -0.2803 -0.6262 -0.7493 -0.5237
-0.5395 -0.6375 -0.5675 -0.6281 -0.5191 -0.4836
-0.5713 -0.4687 -0.3885 -0.3084 -0.2506 -0.1769
-0.0771 -0.0035 0.0618 0.1084 0.1737 0.2454
0.3471 0.4851 0.6035 0.7443 0.9307 1.0715
1.1526 1.2244 1.2552 1.2235 1.1591 1.0687
1.0006 0.9400 0.8458 0.7955 0.7703 0.7451
0.7563 0.7759 0.8328 0.9288 0.9502 1.0211
1.0863 1.1581 1.2607 1.3530 1.7828 1.6141
1.5245 2.5063 2.7469 2.5884 2.9352 3.2131
3.3315 3.4154 3.5030 3.4844 3.4834 3.4480
3.3622 3.3380 3.2457 3.1636 3.1002 3.0004
2.9184 2.8699 2.8540 2.8018 2.7421 2.6909
2.6181 2.5370 2.4559 2.3542 2.2787 2.2349
2.1771 2.1668 2.1789 2.1593 2.1603 2.1771
2.1845 2.2022 2.1649 2.1593 2.1295 2.0996
2.0707 2.0232 1.9840 1.9281 1.9737 1.8982
2.0390 1.9001 2.2003 2.1938 1.0553 2.3150
2.5555 1.1924 2.1070 2.0231 1.4012 1.6716
1.4478 1.2501 1.1933 0.9816 0.7858 0.7513
0.6077 0.4455 0.4380 0.3625 0.2991 0.3093
0.3121 0.3606 0.3923 0.4035 0.4827 0.5191
0.5918 0.7195 0.7997 0.9508 1.1083 1.2034
1.3051 1.3862 1.4365 1.4337 1.3843 1.3106
1.2165 1.0962 0.9116 0.7363 0.5479 0.3596
0.1722 -0.0563 -0.2278 -0.4432 -0.6409 -0.7780
-0.9449 -1.0307 -1.1276 -1.1752 -1.1920 -1.1901
-1.1342 -1.0997 -1.0120 -0.9393 -0.5356 -0.7957
-1.1202 0.0117 -0.0312 -0.5925 0.2942 0.3184
-0.0983 0.2737 0.2103 0.0350 0.2168 0.1152
-0.0825 -0.1049 -0.2876 -0.4490 -0.4210 -0.5581
-0.6354 -0.6625 -0.7623 -0.7464 -0.7567 -0.7828
-0.7427 -0.6579 -0.5739 -0.4714 -0.3791 -0.2877
-0.1973 -0.1423 -0.0677 -0.0276 0.0022 -0.0565
0.0330 0.1505 0.0488 0.2213 0.3668 0.2940
0.4330 0.5570 0.5523 0.6437 0.7080 0.7015
0.7667 0.8264 0.8693 0.9784 1.0697 1.1863
1.3355 1.4473 1.5695 1.6851 1.7793 1.8669
1.9424 1.9956 2.0524 2.0627 2.0692 2.0822
2.0216 2.0104 2.0328 2.0067 1.9899 1.9638
1.9097 1.8267 1.6990 1.5517 1.4044 1.2300
1.0389 0.9074 0.7647 0.6416 0.5643 0.4785
0.4104 0.3330 0.2836 0.2388 0.1969 0.1586
0.0654 -0.0036 -0.0745 -0.2106 -0.3645 -0.4959
-0.6255 -0.7645 -0.8698 -0.9612 -1.0153 -1.0554
-1.0946 -1.1104 -1.1645 -1.2009 -1.2232 -1.2885
-1.3305 -1.3575 -1.4013 -1.4452 -1.4741 -1.4853
-1.5179 -1.5571 -1.5748 -1.6503 -1.7361 -1.7986
-1.9291 -2.0429 -2.1604 -2.3217 -2.4615 -2.6732
-2.8932 -3.0732 -3.2718 -3.4154 -3.5804 -3.7380
-3.8462 -4.0056 -4.1166 -4.2061 -4.3720 -4.4849
-4.5772 -4.6797 -4.7692 -4.8131 -4.8028 -4.8653
-4.8756 -4.8606 -4.8345 -4.8662 -4.7926 -4.7907
-4.7544 -4.5875 -5.0826 -4.8001 -4.6695 -5.1889
-4.6285 -5.0807 -5.4910 -5.0845 -5.5022 -5.5619
-5.7651 -6.1418 -5.9833 -6.1633 -6.3470 -6.4253
-6.6491 -6.6481 -6.6705 -6.7945 -6.7908 -6.7694
-6.7414 -6.7134 -6.6575 -6.5447 -6.4654 -6.3601
-6.2575 -6.1466 -5.9713 -5.8426 -5.7512 -5.6422
-5.5275 -5.4287 -5.3904 -5.3317 -5.2552 -5.2487
-5.1816 -5.1014 -5.0417 -4.9466 -4.9019 -4.8581
-4.8404 -4.8590 -4.8618 -4.8917 -4.9663 -5.0353
-5.1658 -5.2656 -5.3122 -5.4241 -5.4866 -5.5751
-5.5966 -5.6609 -5.6786 -5.6460 -5.6386 -5.5491
-5.4773 -4.9663 -5.5351 -5.6964 -4.1915 -4.6307
-4.7416 -4.1020 -4.3845 -3.6806 -3.7776 -3.7617
-3.1268 -3.4065 -3.1930 -3.1203 -3.1492 -3.0130
-3.1296 -3.0457 -3.1063 -3.0960 -3.0830 -3.1511
-3.0606 -3.1119 -3.0923 -2.9842 -3.0019 -2.9665
-2.8975 -2.8938 -2.8844 -2.8350 -2.7856 -2.7129
-2.5749 -2.4556 -2.3213 -2.0724 -1.9698 -1.7554
-1.5913 -1.3899 -1.1587 -1.1102 -0.7372 -0.8323
-0.3960 -0.5974 0.0236 0.3397 -1.8720 0.6837
1.0837 -1.0338 0.5923 0.1019 0.3145 0.2389
-0.3681 0.5196 0.0590 0.1727 0.2771 0.0907
0.3377 0.2398 0.3890 0.3526 0.3881 0.5857
0.5195 0.5466 0.5717 0.6006 0.6687 0.6603
0.7013 0.7992 0.7899 0.7787 0.7815 0.7843
0.8160 0.8495 0.9456 1.0323 1.1134 1.2225
1.3595 1.4285 1.5395 1.6793 1.7809 1.8947
1.9721 2.1231 2.1268 2.5902 2.1762 1.8238
3.1739 2.6807 2.4392 2.8867 2.5538 3.3193
3.0816 2.9687 3.4014 3.2261 3.4433 3.3808
3.4741 3.5216 3.4927 3.6046 3.3911 3.4144
3.3771 3.2475 3.1794 3.0255 2.9929 2.9202
2.7328 2.6777 2.6572 2.5491 2.4717 2.4064
2.4418 2.4539 2.4409 2.4651 2.4735 2.5229
2.5099 2.5677 2.5677 2.7131 2.6693 2.7756
2.9033 2.7989 3.0898 2.7728 3.2427 2.7690
3.2511 2.8809 2.8660 4.5816 -0.5484 3.1233
5.5475 -0.4860 3.0534 2.6021 1.4804 2.2235
0.8184 2.3764 1.2398 1.0431 1.6566 0.9452
1.2128 0.9293 1.1885 1.0422 0.7932 1.2640
1.0552 1.0328 1.1913 1.1419 1.2389 1.2286
1.2081 1.3554 1.3899 1.3666 1.3666 1.3880
1.4421 1.3395 1.3432 1.4253 1.1875 1.2696
1.1437 1.2854 1.2295 1.1884 1.4653 1.0840
1.7171 0.8229 2.3362 1.1856 -1.6255 3.5296
2.5310 -0.4824 1.1660 1.9352 1.6863 0.3007
1.4009 1.4084 0.8667 1.4065 0.9002 1.2406
1.1426 1.0270 1.2648 0.9841 0.9879 1.0270
1.0447 0.9869 1.0205 1.1799 1.2964 1.3309
1.4885 1.7104 1.7934 1.9817 2.0992 2.2726
2.4367 2.4451 2.6036 2.7621 2.8805 2.8861
2.9821 3.1089 3.0129 3.0604 3.0465 3.0996
2.9327 3.0800 2.7816 2.9429 3.5928 1.3271
1.8390 3.6208 2.5867 2.1383 1.6907 3.2534
3.1173 1.4986 2.4459 2.4636 2.3779 2.3303
2.2548 2.3322 2.0179 2.2622 2.1196 1.9014
1.9536 1.8268 1.6851 1.5219 1.4631 1.4547
1.2673 1.1042 1.1480 1.1004 0.9680 0.9018
0.9214 0.9671 0.9764 0.9391 1.0062 1.1526
1.1367 1.1004 1.2253 1.2570 1.1759 1.3064
1.2840 1.3959 1.3866 1.4789 1.4957 1.4388
1.6840 1.3148 2.2630 0.0169 -0.6311 3.9058
2.1632 0.3217 1.2914 1.6951 1.8350 0.2602
1.2019 1.4061 0.5847 1.4117 0.9231 0.9968
1.0601 0.8429 1.5310 1.0434 0.8774 1.3417
1.3576 1.3641 1.2018 1.2345 1.3995 1.8992
1.3240 0.3832 1.9431 1.9514 0.4876 1.4302
1.8032 1.2643 1.4144 1.4638 1.3976 1.6074
1.4274 1.1701 1.6577 1.5234 1.0582 1.4665
1.7481 1.1579 1.3658 1.6689 1.1616 1.6782
1.1113 1.3453 2.4595 0.7644 1.5476 2.8240
1.4730 1.5112 1.9084 2.0296 2.0045 2.0930
2.2198 2.0324 2.3382 2.4613 2.1210 2.4035
2.6487 2.1713 2.1983 2.3699 2.3335 2.3307
2.0398 1.9447 2.3699 2.0631 1.5251 1.9102
1.9335 1.5484 1.5727 1.7545 1.5820 1.3256
1.3498 1.4999 1.1987 1.0757 1.4309 0.8901
0.8854 1.2136 0.8528 0.9563 0.7903 0.8146
0.9059 0.6803 0.4910 0.5479 1.0234 0.5460
0.4444 0.8239 0.4220 0.8304 1.0672 0.3148
0.3297 0.5926 0.4546 0.0658 -0.1095 0.5646
0.0341 -0.9552 0.0005 -0.5310 -0.9375 0.0145
-1.4494 -1.2601 -0.8583 -1.9510 -1.2312 -1.9100
-1.2667 -1.8289 -4.1095 -0.4294 -1.8317 -3.9855
-1.6592 -2.2960 -1.7618 -2.7427 -2.1935 -2.6839
-1.7236 -0.9991 -3.8541 -0.5152 -2.4602 -2.6532
-0.3008 -3.4084 -0.8360 -1.6537 -2.5740 -0.7306
-2.6607 -0.8789 -1.3712 -2.5395 -0.2794 -1.7619
-1.8514 -0.5470 -1.6080 -0.7726 -1.1391 -1.4207
-0.3792 -1.4440 -0.5675 -0.9489 -1.2556 -0.4659
-1.4524 -0.6282 -1.1857 -1.4076 -0.4109 -1.3191
-1.4394 -0.8016 -0.6179 -1.1606 -1.0757 -0.9172
-0.8977 -0.7382 -1.3480 -0.2431 -0.5285 -1.2296
0.1018 -0.6254 -0.5462 -0.0269 -0.5359 0.0766
-0.1695 -0.3653 0.0039 -0.2908 -0.1929 -0.2721
-0.2358 -0.3607 -0.3318 0.0039 -0.6274 -0.1770
-0.1286 -0.7122 -0.2386 -0.3458 -0.5314 -0.4652
-0.3598 -0.5314 -0.4064 -0.3580 -0.6088 -0.2116
-0.6293 -0.4055 -0.2862 -0.2097 -0.1184 -0.3058
0.4830 -0.6545 0.8858 0.3077 -1.0526 2.1109
-0.1165 -0.4942 1.9757 0.0345 -0.4037 1.3753
0.5622 -0.2779 0.7002 0.2321 -0.5380 -0.0075
0.1156 -0.6481 0.0307 -0.0802 -1.6299 -0.6388
-0.0252 -1.6364 -1.2029 -0.6136 -1.9767 -1.4332
-0.9204 -1.8155 -1.2756 -1.3875 -1.8192 -1.0686
-1.3372 -1.5544 -0.8766 -0.8328 -1.5237 -0.7824
-0.9465 -1.1806 0.0325 -2.0924 